-----------------------------------------------------
BloodHound 307 VOC Analyser V2017.1
RoboScientific Ltd 
Espace North
Wisbech Road
Littleport
Cambridgeshire, UK
CB6 1RA 
-----------------------------------------------------
Date = 24/02/2021
Time = 12:43:27
Data is protected by RoboScientific Limited
-----------------------------------------------------
Name of the experiment = "5557P"
-----------------------------------------------------
Repeat No. = 5/5
-----------------------------------------------------
Experimental Time (in sec) and Flow Profile :
-----------------------------------------------------
Baseline = 2.00
Absorb = 4.00
Pause = 1.00
Desorb = 5.00
Flush = 18.00
Wait = 5.00
Higher Flow (V) = 4.00
Medium Flow (V) = 3.00
Low Flow (V) = 1.00
-----------------------------------------------------
Total Profile Time = 35 in sec
-----------------------------------------------------
Acquired data point per second = 4
--------------------------------------------------
Total data point stored  = 120
-----------------------------------------------------
Acquired sensor responses from 24 sensors
-----------------------------------------------------

Data Points	 Sen-1	 Sen-2	 Sen-3	 Sen-4	 Sen-5	 Sen-6	 Sen-7	 Sen-8	 Sen-9	 Sen-10	 Sen-11	 Sen-12	 Sen-13	 Sen-14	 Sen-15	 Sen-16	 Sen-17	 Sen-18	 Sen-19	 Sen-20	 Sen-21	 Sen-22	 Sen-23	 Sen-24	Humidity (%r.h.)
0.000	312.369	303.655	284.413	284.842	228.668	295.251	288.161	305.350	244.353	222.939	300.360	303.321	106.961	116.272	135.371	133.724	190.399	124.150	131.479	113.288	174.356	196.558	118.158	115.269	44.706
1.000	312.631	303.941	284.914	285.272	228.812	294.893	287.922	305.469	244.926	222.676	301.100	303.631	106.699	116.153	135.323	133.915	190.447	124.103	131.336	113.336	174.237	196.511	118.206	115.389	29.907
2.000	312.846	303.917	284.246	284.723	229.146	295.275	288.185	305.803	244.711	222.795	300.312	303.607	107.105	116.272	135.132	133.843	190.375	123.959	131.384	113.288	174.165	196.439	118.063	115.484	32.118
3.000	312.488	303.798	284.246	285.201	228.764	295.108	288.233	305.636	244.902	222.724	300.551	303.225	107.176	116.200	135.037	133.867	190.495	124.055	131.241	113.240	174.094	196.439	118.301	115.580	47.143
4.000	312.965	303.726	284.461	284.914	228.382	295.347	288.519	305.636	245.093	222.986	300.527	303.368	107.057	116.129	135.204	133.938	190.471	124.031	131.193	113.264	174.141	196.487	118.206	115.484	49.715
5.000	313.204	303.464	284.055	284.604	228.573	295.275	288.447	305.947	244.258	222.628	300.671	303.512	106.532	116.177	135.132	133.915	190.638	124.079	131.097	113.264	174.094	196.582	118.301	115.413	35.682
6.000	312.846	303.703	284.365	285.057	228.525	295.418	288.471	305.756	244.878	222.390	300.265	303.846	107.009	115.962	135.180	133.962	190.662	123.912	131.074	113.336	174.285	196.535	118.397	115.556	28.599
7.000	312.727	303.774	284.389	285.439	229.002	295.562	288.376	305.994	244.998	222.867	300.647	303.488	106.866	116.177	135.347	133.891	190.518	123.983	131.145	113.288	174.117	196.558	117.991	115.389	40.916
8.000	312.225	303.774	284.389	284.389	228.668	295.060	288.447	305.636	245.069	222.342	300.456	303.631	107.057	116.057	135.037	133.771	190.399	124.079	131.050	113.216	173.879	196.582	118.254	115.436	51.429
9.000	313.013	302.915	284.198	284.938	229.217	295.633	288.734	305.612	245.141	222.390	300.599	303.798	106.794	116.105	135.275	133.795	190.542	123.959	131.026	113.216	173.926	196.487	118.158	115.317	42.135
10.000	312.106	303.893	284.795	284.461	228.812	295.323	288.686	305.756	244.711	222.390	300.312	303.941	107.654	116.081	135.060	133.747	190.495	123.935	130.906	113.192	174.189	196.558	118.110	115.413	28.824
11.000	302.915	303.082	284.246	284.914	229.193	294.702	287.874	305.636	243.470	221.840	299.931	303.225	115.460	116.606	135.132	133.962	190.232	124.294	131.527	113.383	175.239	196.726	118.564	115.723	34.284
12.000	289.546	299.931	284.604	285.010	229.575	294.249	287.087	305.302	241.178	221.315	299.071	300.718	129.498	119.686	135.323	133.747	189.850	125.010	132.554	113.598	177.866	197.490	119.256	117.872	48.541
13.000	275.460	296.159	284.413	284.651	229.265	292.434	284.341	305.063	238.146	220.145	297.495	298.785	143.822	123.673	135.442	133.676	189.444	126.490	134.869	114.028	180.945	198.874	121.309	120.880	47.639
14.000	261.614	291.909	283.697	284.962	230.363	290.930	280.975	303.965	234.732	219.143	293.580	295.323	158.815	127.612	135.824	133.843	189.182	128.639	138.976	115.031	184.479	199.877	124.723	123.744	33.697
15.000	247.218	287.851	283.171	284.174	229.623	287.278	274.267	302.795	231.079	218.045	289.187	292.148	171.372	131.933	136.350	133.986	189.014	131.575	144.753	116.630	187.749	201.285	129.379	126.633	30.539
16.000	234.899	283.076	282.933	283.506	230.101	283.529	266.436	301.100	228.525	216.708	283.888	288.662	184.264	136.159	136.803	134.535	188.967	135.442	152.918	118.349	190.877	202.407	134.201	129.761	43.308
17.000	224.371	278.444	281.906	283.482	230.172	280.569	258.176	298.546	227.403	215.562	279.256	285.368	195.675	140.957	137.424	134.846	188.895	139.047	161.703	120.856	191.760	203.553	139.573	133.604	48.722
18.000	218.928	273.359	281.476	282.909	230.125	276.749	248.841	295.872	229.289	215.108	273.861	282.169	201.787	145.708	137.949	135.395	188.847	142.915	170.751	123.171	189.014	204.031	144.872	137.400	39.112
19.000	224.920	268.895	280.736	282.288	230.172	272.858	240.319	293.819	232.703	215.132	268.585	277.967	194.696	151.032	138.761	136.397	189.062	145.971	178.940	125.845	186.102	203.840	150.817	141.459	31.577
20.000	231.867	263.356	279.638	280.879	229.743	269.372	232.249	291.336	236.356	216.302	262.545	273.861	187.439	155.639	139.358	137.376	189.110	149.743	186.794	127.707	181.709	202.909	156.069	144.968	38.751
21.000	238.337	259.131	279.495	279.757	229.480	265.386	225.254	288.519	241.035	217.925	256.576	270.136	181.757	160.748	140.098	138.761	189.468	153.825	194.028	130.190	178.033	200.856	162.061	149.050	46.556
22.000	243.971	254.165	277.991	278.516	229.480	261.924	219.883	285.965	245.284	220.169	250.345	265.791	175.956	165.666	141.196	139.835	189.755	157.883	199.734	132.960	173.974	198.826	168.292	152.989	42.225
23.000	248.698	249.271	277.298	276.821	228.621	257.507	221.769	283.458	249.104	222.103	244.568	262.187	170.847	170.823	142.485	141.196	190.447	161.894	197.657	135.538	169.390	196.582	174.667	157.454	34.600
24.000	253.401	244.353	276.129	276.009	227.833	252.780	226.711	280.521	253.162	224.395	239.077	258.415	166.645	175.072	143.703	142.748	191.402	166.215	192.309	138.045	165.618	193.980	179.632	160.963	36.720
25.000	256.648	240.295	274.696	274.147	226.878	248.579	231.199	278.015	255.956	226.854	233.037	253.998	163.685	179.752	145.063	143.870	192.285	170.441	188.227	141.172	162.801	192.237	185.935	164.831	43.669
26.000	255.717	240.533	273.980	274.410	226.162	247.290	231.700	279.471	257.078	228.048	232.393	255.263	163.995	179.107	145.708	144.132	192.977	171.754	187.988	139.787	162.181	191.282	186.818	164.162	43.443
27.000	254.237	241.942	273.813	274.911	225.827	248.244	231.485	280.259	256.767	228.931	233.013	256.457	165.618	178.057	145.851	143.607	193.168	171.467	188.370	138.785	162.157	190.447	186.221	163.160	37.442
28.000	253.544	242.372	273.694	274.959	225.851	248.054	231.199	281.023	257.054	229.265	233.037	257.698	166.550	177.388	145.971	143.249	193.359	171.253	188.370	138.069	162.085	189.969	186.293	162.539	35.322
29.000	252.948	242.849	273.598	275.102	225.660	248.292	231.629	281.190	256.600	230.196	232.631	257.436	166.812	177.149	145.923	143.106	193.479	171.253	187.630	137.734	161.870	189.158	186.460	162.205	41.277
30.000	257.818	239.817	274.171	275.126	225.302	246.406	236.165	279.495	259.990	231.533	229.528	254.571	161.894	179.632	146.281	143.727	193.932	172.900	183.142	139.620	159.292	187.439	189.158	164.377	44.436
31.000	251.849	241.417	272.404	272.930	224.467	242.586	242.109	276.320	263.022	232.512	224.610	255.836	167.695	178.295	147.331	145.111	194.649	176.815	177.651	143.297	156.021	185.959	194.625	162.778	39.924
32.000	238.695	255.001	270.924	272.046	223.631	238.313	246.430	273.503	264.884	233.515	224.323	266.245	181.924	165.499	148.740	146.520	195.508	181.017	172.924	145.827	153.992	185.386	194.529	153.395	34.870
33.000	263.094	267.773	269.014	270.662	222.151	234.804	249.820	273.383	266.770	233.395	229.599	275.365	157.000	152.034	149.886	147.833	196.535	184.001	169.605	145.947	153.276	185.720	189.444	143.870	38.209
34.000	277.489	277.036	267.845	269.038	221.482	232.393	252.470	274.481	265.791	232.058	236.618	282.312	141.244	142.103	151.533	149.217	197.585	186.436	167.266	144.180	153.085	186.603	181.781	137.066	46.240
35.000	287.803	284.079	266.866	268.537	220.623	232.130	253.210	277.298	264.717	231.438	245.762	287.278	131.432	135.442	152.942	150.029	198.540	187.725	166.191	141.315	153.992	187.916	172.685	131.838	44.075
36.000	296.015	288.710	265.577	268.656	220.241	232.249	253.544	281.142	263.643	229.002	254.929	290.596	124.938	130.763	153.897	150.101	199.208	187.319	166.048	138.164	155.830	189.587	164.425	128.853	33.066
37.000	299.668	292.530	264.813	268.609	220.074	234.016	252.542	284.007	260.468	227.236	263.046	293.341	119.877	127.588	154.923	150.292	199.590	185.577	166.717	134.678	158.647	191.354	156.117	126.180	32.614
38.000	302.557	294.607	264.502	269.014	219.668	235.902	250.632	287.206	256.934	225.278	269.516	295.180	116.773	124.914	155.425	149.910	199.662	182.951	168.674	131.336	161.966	193.097	149.122	124.389	45.293
39.000	305.016	296.111	263.762	269.325	220.145	239.244	248.268	290.644	253.115	223.798	275.938	296.994	114.410	123.219	155.616	148.955	199.423	179.393	171.348	128.543	166.048	194.959	143.130	122.790	49.083
40.000	307.069	298.092	264.550	270.089	220.742	243.422	244.640	292.816	249.152	221.936	280.139	297.424	112.810	121.858	155.639	148.143	198.826	175.430	174.690	126.203	169.772	196.749	138.379	121.835	37.352
41.000	307.880	299.095	264.980	271.497	221.196	248.268	239.483	294.869	245.093	220.289	284.007	298.450	112.118	120.736	154.923	147.045	198.325	171.014	179.370	124.317	174.213	198.349	134.869	120.784	29.321
42.000	308.597	300.121	265.815	273.073	222.127	252.900	234.899	296.230	241.273	218.809	286.752	298.713	111.163	120.283	154.350	145.708	197.561	166.478	184.526	122.646	178.033	200.116	131.814	120.307	39.924
43.000	309.313	300.121	265.839	273.932	222.270	256.982	228.764	297.710	237.478	217.519	288.925	299.811	110.399	119.567	153.419	144.395	196.821	162.085	190.399	121.333	181.614	201.644	129.570	119.614	50.843
44.000	309.599	300.289	267.057	274.863	223.416	261.494	223.488	298.880	234.350	216.206	291.193	300.408	109.898	119.041	152.393	143.345	195.938	157.836	195.747	120.116	184.120	202.837	127.660	119.185	42.495
45.000	309.766	301.220	268.609	276.057	224.013	265.314	219.310	299.501	231.867	215.418	292.673	300.527	109.755	118.659	151.247	142.390	195.293	154.064	200.116	119.280	186.866	203.840	126.394	118.898	29.276
46.000	311.199	300.957	269.158	276.726	224.490	269.540	222.390	301.029	229.766	215.132	293.365	300.838	109.325	118.468	150.125	141.411	194.553	150.602	197.108	118.468	188.847	204.055	125.272	118.468	34.645
47.000	310.268	301.817	270.829	278.062	225.302	271.927	227.833	300.814	228.883	215.347	294.941	301.124	108.967	118.134	149.146	140.432	194.195	147.451	191.354	117.848	190.375	204.055	124.365	118.349	48.857
48.000	310.960	301.960	271.497	279.304	225.684	274.458	233.777	301.506	228.334	215.323	295.156	301.124	108.967	117.967	147.952	139.644	193.670	144.443	185.624	117.346	191.187	203.792	123.744	117.943	47.188
49.000	310.936	302.151	272.595	279.304	226.257	276.964	239.531	302.007	228.358	215.848	295.991	301.626	108.776	117.943	147.093	139.119	193.288	142.032	180.229	116.964	191.426	203.243	122.837	117.466	32.569
50.000	311.533	302.031	273.455	280.211	226.329	279.925	245.809	302.628	228.740	216.206	295.968	301.267	108.609	117.728	146.042	138.403	192.977	139.883	174.356	116.678	191.282	202.742	122.551	117.704	30.268
51.000	311.342	301.793	274.028	280.903	226.400	281.572	250.083	302.652	228.573	216.923	296.445	301.435	108.227	117.466	145.183	137.949	192.763	137.782	168.985	116.320	190.351	202.312	122.073	117.513	44.706
52.000	311.342	302.007	275.341	281.118	226.782	283.052	254.977	303.321	229.623	217.305	296.708	301.649	108.298	117.418	144.371	137.472	192.595	136.039	164.592	115.962	189.683	201.858	121.739	117.418	50.662
53.000	311.772	302.270	276.176	281.094	226.830	284.341	258.773	303.464	230.459	217.877	297.495	301.936	108.083	117.370	143.727	137.114	192.381	134.655	160.319	115.460	189.014	201.381	121.500	117.370	38.570
54.000	311.843	302.103	276.558	281.476	226.926	285.917	262.091	303.726	231.294	217.973	297.495	302.007	108.298	117.251	142.963	136.732	192.190	133.771	157.263	115.365	188.227	200.975	121.238	117.155	28.238
55.000	312.082	302.867	277.275	282.121	227.284	287.063	265.624	303.798	231.987	218.474	297.854	301.769	107.988	117.155	142.437	136.397	192.023	132.769	154.684	115.341	187.582	200.665	120.999	117.036	38.480
56.000	311.939	301.960	277.537	282.598	227.307	287.755	267.654	303.893	232.679	218.737	297.734	301.864	107.988	117.012	141.817	136.254	192.046	131.766	152.011	115.126	186.723	200.259	120.784	117.012	50.978
57.000	312.225	302.389	278.707	282.193	227.475	288.304	269.611	303.965	233.467	218.832	297.997	302.151	107.988	117.132	141.411	136.015	191.927	131.217	149.958	114.983	185.959	200.187	120.545	116.941	43.849
58.000	312.082	302.413	278.325	282.694	227.642	289.140	271.258	304.204	234.374	219.572	298.522	302.342	107.964	117.012	141.029	135.920	191.736	130.310	148.239	114.983	185.433	199.686	120.474	116.964	29.682
59.000	312.178	302.676	279.065	282.193	227.140	289.378	272.810	304.275	234.589	219.716	298.570	302.509	107.487	116.941	140.671	135.753	191.760	130.047	146.806	114.816	184.789	199.447	120.354	116.964	33.246
60.000	311.963	302.748	279.184	283.171	227.451	289.713	274.290	304.228	235.401	219.716	298.283	302.342	107.534	117.108	140.480	135.610	191.736	129.498	145.445	114.792	184.049	199.256	120.283	116.773	48.000
61.000	312.583	302.533	279.423	282.670	227.236	290.095	275.389	304.825	235.639	220.098	298.522	302.175	107.630	116.893	140.146	135.538	191.569	128.806	143.941	114.696	183.595	199.137	120.211	116.702	48.587
62.000	311.843	302.939	280.498	283.052	227.307	290.142	276.224	304.490	236.499	220.169	298.856	302.580	107.678	117.132	139.835	135.514	191.569	128.686	143.177	114.768	183.189	199.041	120.163	116.750	33.923
63.000	311.748	303.106	280.402	283.506	227.689	290.787	277.155	304.371	236.356	220.241	299.047	302.700	107.964	116.869	139.573	135.299	191.450	128.352	142.294	114.482	182.855	198.922	119.853	116.630	29.230
64.000	312.249	302.819	280.617	283.195	227.331	291.121	278.039	304.777	237.000	220.695	298.785	302.700	107.845	116.654	139.310	135.299	191.569	128.089	141.339	114.434	182.211	198.755	119.949	116.654	43.217
65.000	311.700	303.034	280.808	283.219	227.475	291.073	278.564	304.538	237.501	220.217	299.405	302.628	107.487	117.012	139.143	135.156	191.497	128.018	140.623	114.529	182.020	198.588	119.590	116.511	51.249
66.000	311.915	302.676	280.712	283.601	227.761	291.408	279.519	304.801	238.051	220.766	299.023	302.509	107.606	116.773	138.809	134.893	191.450	127.493	140.074	114.434	181.685	198.492	119.686	116.511	40.194
67.000	312.369	303.058	281.190	283.720	227.546	291.957	280.307	304.968	237.883	220.814	298.880	302.628	107.534	116.678	138.451	135.084	191.545	127.516	139.477	114.219	181.184	198.421	119.447	116.630	28.193
68.000	312.440	302.843	281.238	283.697	227.761	292.339	281.142	304.825	238.337	221.077	298.952	302.509	107.606	116.582	138.570	134.893	191.545	127.254	138.665	114.243	181.041	198.349	119.686	116.511	36.946
69.000	312.321	302.819	281.309	283.004	227.594	292.028	280.832	304.729	238.767	221.005	299.334	302.628	107.463	116.535	138.188	134.965	191.497	126.920	138.331	114.219	180.635	198.253	119.495	116.439	50.662
70.000	312.655	303.464	282.025	283.864	228.095	292.339	281.452	305.207	239.005	220.790	298.952	302.246	107.439	116.678	138.116	134.750	191.521	126.991	138.116	114.243	180.181	198.158	119.471	116.391	44.977
71.000	311.628	302.771	281.715	283.792	227.809	292.721	281.858	304.562	239.149	221.196	299.334	302.843	107.487	116.750	138.021	134.774	191.473	126.753	137.687	114.386	180.181	198.134	119.423	116.344	30.223
72.000	312.201	303.321	281.620	283.553	227.642	292.601	282.718	305.207	239.435	221.339	299.549	302.986	107.511	116.702	137.997	134.655	191.259	126.681	137.328	114.147	179.775	198.182	119.280	116.391	31.983
73.000	312.631	302.604	281.500	283.649	227.904	292.983	282.885	304.681	239.292	221.196	299.095	302.676	107.797	116.654	137.710	134.631	191.235	126.538	136.946	114.267	179.489	198.039	119.376	116.296	46.962
74.000	312.440	303.058	281.739	283.386	227.498	292.864	283.124	305.302	239.841	221.291	299.859	302.962	107.320	116.654	137.615	134.583	191.306	126.466	136.660	114.052	179.393	197.872	119.280	116.415	49.579
75.000	312.321	303.106	282.169	284.126	227.737	293.007	283.028	305.254	239.841	221.387	299.477	302.748	107.916	116.726	137.878	134.726	191.306	126.299	136.350	114.171	179.346	197.872	119.161	116.177	35.276
76.000	312.201	303.177	282.002	283.816	228.024	293.198	283.338	305.350	240.247	221.315	299.501	302.962	107.415	116.559	137.639	134.511	191.211	126.156	136.087	114.076	178.940	197.728	119.161	116.344	28.824
77.000	312.655	303.106	282.145	283.482	227.833	292.912	284.174	305.016	240.581	221.769	299.525	302.867	107.630	116.487	137.496	134.488	191.235	126.156	135.896	113.980	178.677	197.728	119.185	116.200	41.954
78.000	312.392	302.986	281.954	283.840	227.833	293.556	284.270	305.278	240.677	221.482	299.286	302.962	107.439	116.535	137.352	134.488	191.282	125.965	135.514	113.909	178.630	197.681	118.946	116.200	51.564
79.000	312.010	303.106	282.312	284.413	227.833	293.174	284.198	304.968	240.772	221.387	299.238	303.368	107.343	116.463	137.281	134.583	191.187	126.012	135.442	113.837	178.343	197.442	119.065	116.200	40.871
80.000	312.583	303.297	282.670	284.174	228.071	293.246	284.365	305.207	240.963	221.458	299.692	302.986	107.439	116.511	137.161	134.297	191.115	125.917	135.180	113.885	178.200	197.633	118.850	116.320	28.283
81.000	312.154	303.321	282.885	283.983	228.071	293.532	284.842	304.896	241.202	221.267	299.572	302.891	107.463	116.439	137.066	134.464	191.259	125.774	135.037	113.813	177.937	197.585	119.065	116.272	36.540
82.000	312.273	303.344	282.288	283.864	228.167	293.437	284.747	305.159	240.868	221.411	299.931	303.010	107.320	116.511	137.161	134.297	191.187	125.750	134.893	113.837	178.128	197.442	118.874	116.057	50.121
83.000	312.774	303.416	282.479	283.864	228.024	293.914	284.819	305.159	241.393	221.482	299.453	303.106	107.439	116.582	137.090	134.440	191.211	125.583	134.655	113.885	177.842	197.466	118.850	116.105	45.744
84.000	312.369	303.321	282.909	284.461	227.904	293.795	284.890	305.111	241.106	221.554	299.596	303.297	107.415	116.391	136.946	134.344	191.044	125.463	134.392	113.789	177.722	197.418	119.041	116.200	30.629
85.000	312.249	303.130	282.455	284.102	227.880	293.556	285.201	305.374	241.488	221.530	299.668	302.891	107.296	116.511	136.827	134.273	191.091	125.392	134.320	113.765	177.412	197.346	118.755	116.009	31.531
86.000	312.655	303.416	282.909	284.508	228.406	294.058	285.487	305.230	242.109	221.649	299.501	302.962	107.152	116.535	136.803	134.273	191.068	125.368	134.320	113.694	177.531	197.275	118.922	116.105	46.601
87.000	312.560	303.153	282.909	284.484	228.024	293.962	285.606	305.278	241.846	221.649	299.549	303.082	107.296	116.439	136.660	134.320	191.091	125.487	134.153	113.718	177.340	197.322	118.874	115.938	49.850
88.000	312.751	303.273	283.529	284.246	228.095	293.891	285.678	305.063	242.181	221.482	300.002	303.368	107.415	116.487	136.779	134.344	191.091	125.225	134.058	113.670	177.293	197.251	118.922	116.009	35.682
89.000	312.798	302.795	282.980	284.079	228.239	294.058	285.917	305.398	241.679	222.175	299.549	303.153	107.272	116.511	136.636	134.249	190.948	125.248	133.915	113.837	177.006	197.275	118.898	115.866	28.599
90.000	312.512	303.058	282.980	284.604	228.000	294.272	286.251	305.111	241.870	222.031	300.217	303.440	107.367	116.391	136.397	134.225	191.115	125.248	133.795	113.646	176.696	197.227	118.803	116.033	41.052
91.000	311.891	303.559	282.622	283.720	227.952	293.604	285.750	305.445	241.823	221.936	300.503	303.870	107.343	116.511	136.564	134.392	191.020	125.034	133.652	113.718	176.815	197.084	118.898	116.033	51.610
92.000	312.440	302.700	283.100	283.888	228.119	294.010	286.060	305.445	242.061	222.222	300.145	303.464	107.057	116.344	136.469	134.297	190.972	125.177	133.533	113.670	176.624	196.940	118.827	115.962	41.413
93.000	312.798	302.939	283.219	284.508	228.239	294.225	286.227	305.565	242.014	222.008	300.169	303.273	107.272	116.463	136.469	134.225	190.996	125.034	133.628	113.765	176.505	197.203	118.946	115.890	28.418
94.000	312.369	303.201	283.553	284.723	228.382	294.535	286.179	305.183	242.706	222.175	299.740	303.010	107.391	116.511	136.397	134.249	191.020	124.962	133.389	113.622	176.338	197.203	118.707	115.842	35.547
95.000	312.273	303.321	283.434	284.317	228.286	294.487	286.060	305.230	242.228	222.270	299.811	303.201	107.105	116.296	136.445	134.273	191.068	124.986	133.246	113.598	176.314	197.036	118.779	115.938	49.579
96.000	312.583	303.512	283.601	284.270	228.358	294.201	286.179	305.421	242.563	221.769	299.978	303.321	107.200	116.344	136.469	134.249	190.924	124.962	133.127	113.670	176.266	196.988	118.683	115.938	46.601
97.000	313.204	303.392	282.909	284.317	228.191	294.487	286.896	305.875	242.515	222.008	299.907	303.034	107.391	116.391	136.206	134.225	190.829	125.057	133.127	113.574	176.123	197.203	118.731	116.009	31.351
98.000	312.345	303.703	283.744	284.604	228.167	293.914	286.179	305.278	242.921	221.912	300.026	303.225	107.224	116.391	136.350	134.177	191.068	124.795	132.983	113.670	176.194	197.108	118.636	115.866	30.584
99.000	312.751	303.583	283.720	284.723	228.406	294.249	286.681	305.541	242.682	221.960	299.907	303.344	107.296	116.535	136.159	134.129	190.877	124.747	132.888	113.813	176.051	197.036	118.707	115.795	45.654
100.000	312.464	303.679	283.577	284.675	228.215	294.511	286.752	305.684	243.112	222.055	299.931	303.488	107.200	116.415	136.063	134.249	190.900	124.843	132.721	113.431	175.956	197.012	118.707	115.938	50.391
101.000	312.798	303.535	283.315	284.437	228.119	294.607	286.681	304.944	242.730	222.151	300.193	303.583	107.009	116.368	136.183	134.273	190.877	124.771	132.697	113.670	175.884	197.012	118.659	115.747	37.217
102.000	312.321	303.607	283.673	284.508	228.477	294.272	286.418	305.302	243.159	221.840	300.408	303.464	107.248	116.439	136.063	134.225	191.091	124.699	132.649	113.622	175.812	196.964	118.636	115.818	28.373
103.000	312.392	303.655	283.816	284.938	228.430	294.822	287.134	305.469	243.446	222.079	299.859	303.130	107.343	116.296	136.087	134.177	190.972	124.580	132.649	113.574	175.693	197.060	118.636	115.771	39.743
104.000	312.560	304.013	283.744	284.365	228.477	294.416	286.848	305.230	243.136	221.864	300.193	303.321	107.343	116.224	135.777	134.273	190.996	124.676	132.458	113.383	175.717	196.988	118.636	115.866	51.384
105.000	312.321	303.153	283.601	284.317	228.358	294.487	286.824	305.970	242.897	222.485	300.002	303.034	107.224	116.248	135.896	134.153	190.948	124.556	132.363	113.622	175.502	196.773	118.492	115.842	42.541
106.000	312.560	302.962	283.888	284.628	228.406	294.774	287.492	305.732	243.374	222.008	299.978	303.273	107.224	116.415	136.063	133.962	190.900	124.723	132.506	113.550	175.741	197.012	118.540	115.866	28.915
107.000	312.846	302.891	283.529	284.604	228.358	294.822	287.230	305.421	243.494	222.413	299.931	303.392	107.272	116.248	135.681	134.010	190.877	124.604	132.267	113.598	175.454	196.917	118.659	115.795	33.878
108.000	312.273	303.655	283.768	284.580	228.095	294.440	287.158	305.350	243.470	222.199	300.312	303.273	107.152	116.272	135.848	134.034	190.805	124.604	132.291	113.598	175.335	196.845	118.468	115.747	48.677
109.000	312.774	303.607	283.601	284.437	228.406	294.774	287.779	305.589	243.589	222.270	300.026	303.177	107.129	116.320	135.872	134.058	190.900	124.580	132.267	113.407	175.478	196.964	118.612	115.866	48.045
110.000	312.942	303.607	284.031	284.556	228.549	294.368	287.087	305.660	243.255	222.246	300.002	303.297	107.224	116.296	135.872	133.962	190.733	124.413	132.291	113.765	175.359	196.797	118.659	115.675	33.111
111.000	312.416	303.416	283.792	284.437	228.430	294.511	287.469	305.326	243.303	222.437	300.217	303.512	107.057	116.153	135.681	133.986	190.853	124.580	132.315	113.455	175.192	196.988	118.588	115.675	29.591
112.000	312.369	303.297	283.888	284.604	228.358	294.631	287.445	305.421	243.756	222.151	300.098	303.607	107.152	116.224	135.753	134.058	190.829	124.580	132.124	113.479	175.263	196.940	118.564	115.986	43.623
113.000	312.751	303.488	283.864	284.651	228.453	295.060	287.492	305.493	243.804	222.294	300.098	303.488	107.248	116.105	135.610	134.106	190.853	124.580	132.029	113.527	175.048	196.821	118.445	115.747	51.249
114.000	312.488	303.153	283.792	284.198	228.310	294.654	287.540	305.708	243.900	222.342	300.599	303.607	106.961	116.200	135.657	134.058	190.805	124.413	131.957	113.479	175.287	196.869	118.468	115.675	39.247
115.000	312.846	303.321	284.126	284.675	228.668	295.013	287.683	305.636	243.923	222.581	300.265	303.440	106.961	116.320	135.801	134.034	190.853	124.413	132.124	113.622	175.025	196.988	118.492	115.699	28.057
116.000	312.751	303.225	283.697	284.126	228.191	294.822	287.683	305.732	243.876	222.557	300.671	303.440	107.009	116.320	135.633	133.915	190.805	124.341	131.885	113.407	175.001	196.773	118.421	115.771	38.029
117.000	312.058	303.392	283.816	284.651	228.525	295.013	287.636	305.660	244.067	222.055	300.169	303.631	107.224	116.177	135.586	133.891	190.709	124.437	131.957	113.503	174.881	196.821	118.492	115.771	51.023
118.000	312.416	303.583	284.461	284.651	228.979	294.750	287.636	305.708	244.091	221.936	300.121	303.225	107.415	116.105	135.705	133.986	190.853	124.341	131.861	113.383	174.738	196.821	118.612	115.723	44.481
119.000	312.560	303.512	284.270	284.723	228.286	294.893	287.683	305.374	244.091	222.055	300.193	303.297	107.081	116.535	135.681	134.034	190.829	124.389	131.861	113.336	175.001	196.726	118.492	115.556	29.727
120.000	312.870	303.440	283.601	284.293	228.573	295.442	288.042	305.565	243.732	222.700	300.671	303.583	107.033	116.248	135.586	134.034	190.781	124.317	131.623	113.431	174.810	196.702	118.230	115.627	32.208
