-----------------------------------------------------
BloodHound 307 VOC Analyser V2017.1
RoboScientific Ltd 
Espace North
Wisbech Road
Littleport
Cambridgeshire, UK
CB6 1RA 
-----------------------------------------------------
Date = 21/04/2022
Time = 12:17:12
Data is protected by RoboScientific Limited
-----------------------------------------------------
Name of the experiment = "44b_Day 41"
-----------------------------------------------------
Repeat No. = 3/4
-----------------------------------------------------
Experimental Time (in sec) and Flow Profile :
-----------------------------------------------------
Baseline = 2.00
Absorb = 4.00
Pause = 1.00
Desorb = 5.00
Flush = 20.00
Wait = 5.00
Higher Flow (V) = 4.00
Medium Flow (V) = 3.00
Low Flow (V) = 1.00
-----------------------------------------------------
Total Profile Time = 37 in sec
-----------------------------------------------------
Acquired data point per second = 4
--------------------------------------------------
Total data point stored  = 128
-----------------------------------------------------
Acquired sensor responses from 24 sensors
-----------------------------------------------------

Data Points	 Sen-1	 Sen-2	 Sen-3	 Sen-4	 Sen-5	 Sen-6	 Sen-7	 Sen-8	 Sen-9	 Sen-10	 Sen-11	 Sen-12	 Sen-13	 Sen-14	 Sen-15	 Sen-16	 Sen-17	 Sen-18	 Sen-19	 Sen-20	 Sen-21	 Sen-22	 Sen-23	 Sen-24	Humidity (%r.h.)
0.000	305.278	218.594	242.754	303.774	312.918	314.637	314.756	303.822	290.310	303.703	229.695	217.543	114.338	201.572	176.505	114.911	106.221	104.479	104.240	114.935	128.662	115.174	188.847	202.049	40.104
1.000	304.920	218.427	242.873	303.607	312.392	314.374	314.899	303.679	290.262	303.870	229.337	217.495	114.553	201.691	176.457	114.840	106.245	104.455	104.144	114.911	128.615	115.174	188.800	202.145	39.743
2.000	305.636	218.307	243.207	303.989	312.727	314.469	315.066	303.655	290.190	303.559	229.623	217.686	114.386	201.882	176.027	114.887	106.150	104.502	104.168	114.983	128.734	115.055	188.656	202.193	40.104
3.000	305.421	218.236	243.207	303.917	312.655	314.446	315.090	303.798	290.214	303.535	229.552	217.997	114.267	201.978	175.956	114.864	106.174	104.502	104.335	114.983	128.662	115.055	188.585	202.097	40.465
4.000	305.803	218.092	243.255	304.084	312.846	314.469	315.210	303.798	290.166	303.870	229.671	217.686	114.267	202.288	175.980	114.935	106.150	104.407	104.120	115.031	128.806	115.102	188.656	202.216	40.736
5.000	304.944	217.806	243.422	303.440	312.870	314.589	314.804	303.750	290.238	303.726	229.814	217.519	114.338	202.312	175.741	114.792	106.102	104.359	104.001	114.911	128.734	115.222	188.704	202.097	40.330
6.000	305.302	217.782	243.637	303.989	312.583	314.469	314.899	303.774	290.166	303.893	229.671	217.448	114.076	202.527	175.598	114.768	106.174	104.455	104.168	115.007	128.734	114.959	188.632	202.169	39.969
7.000	305.612	217.710	243.709	304.132	312.965	314.374	314.684	303.750	290.262	303.846	229.599	217.495	113.813	202.718	175.502	114.768	106.221	104.479	104.264	115.078	128.734	114.935	188.728	202.312	39.833
8.000	305.469	217.758	243.923	303.774	312.345	314.398	315.329	303.870	290.596	303.870	229.743	217.615	113.694	202.551	175.454	114.792	106.197	104.574	104.192	114.983	128.686	114.935	188.656	202.216	40.239
9.000	305.207	217.543	244.019	303.703	312.345	314.589	314.971	303.726	290.453	303.893	229.289	217.400	113.932	202.694	175.096	114.744	106.126	104.383	104.240	114.911	128.782	114.864	188.609	202.145	40.555
10.000	303.559	252.112	243.589	304.037	312.345	314.231	315.019	303.703	290.405	303.130	229.432	252.971	116.057	166.478	175.550	114.864	106.078	104.311	104.216	115.102	128.639	115.818	189.014	166.382	40.781
11.000	265.887	288.376	239.984	302.342	312.154	313.968	314.493	302.389	291.455	288.471	227.522	286.251	151.629	130.071	178.725	115.914	106.556	104.956	104.359	116.344	127.922	129.402	190.590	133.938	44.255
12.000	236.021	307.188	230.363	299.381	311.461	313.013	314.350	299.668	291.217	240.414	226.329	303.225	181.423	111.497	189.253	118.803	107.320	105.672	104.789	118.755	127.731	175.789	191.903	117.227	40.059
13.000	263.595	317.310	233.682	295.323	310.029	311.891	313.753	296.493	291.217	228.859	225.636	313.634	155.711	101.972	184.455	123.076	108.489	106.627	105.075	122.049	127.540	188.895	192.786	108.251	30.990
14.000	285.057	323.494	248.244	290.071	308.692	310.697	313.347	293.174	290.859	248.030	224.777	319.316	134.726	96.218	169.343	128.734	109.946	108.060	105.768	125.559	127.970	170.417	193.479	101.924	32.975
15.000	300.169	327.313	261.184	283.577	307.116	308.979	312.345	289.689	290.548	263.142	223.989	323.637	119.209	92.804	155.687	135.442	111.712	109.397	106.579	129.617	128.591	155.663	194.100	97.985	44.887
16.000	309.910	329.080	270.566	275.818	304.944	307.522	311.509	284.938	289.307	273.741	223.726	326.287	108.680	89.868	144.371	143.034	113.646	111.092	107.415	134.034	129.522	144.180	194.625	95.741	53.640
17.000	316.928	331.396	278.731	268.155	303.177	305.708	310.626	279.757	288.089	283.362	223.798	328.483	101.757	88.364	135.992	150.363	115.651	113.001	108.561	139.119	130.501	135.013	195.054	92.709	48.316
18.000	321.488	333.377	284.699	260.014	300.121	303.225	308.979	273.431	287.110	290.166	223.297	329.939	96.696	87.242	128.973	158.409	118.588	115.317	110.351	145.302	131.670	127.803	195.222	91.802	35.231
19.000	325.499	333.282	289.760	251.849	297.066	300.599	306.400	267.128	285.869	295.705	222.963	330.274	93.545	86.597	124.317	166.669	121.620	117.967	112.452	151.963	132.960	122.551	195.222	91.468	28.057
20.000	328.244	334.404	293.747	244.472	294.129	297.782	304.634	260.253	284.556	299.787	222.700	331.515	90.727	86.048	120.163	174.619	124.771	120.880	114.744	158.934	134.320	118.158	195.532	89.629	34.915
21.000	329.581	334.284	296.899	236.547	290.906	294.893	301.578	253.091	283.243	304.180	222.676	332.542	89.152	85.762	116.511	182.521	128.519	124.508	117.704	166.287	135.801	114.362	195.508	89.223	48.677
22.000	331.300	335.454	299.286	230.196	286.705	290.644	297.806	246.096	281.596	306.758	222.509	332.040	87.672	85.189	114.004	189.062	132.220	127.875	121.381	173.115	137.137	111.306	195.818	88.507	54.497
23.000	331.778	335.884	301.673	225.398	282.455	287.063	293.843	239.578	280.163	309.480	222.724	333.807	87.290	84.711	111.617	194.123	136.875	131.861	125.296	180.134	138.498	108.418	195.747	88.030	45.383
24.000	332.613	336.123	303.368	224.801	277.657	282.670	288.782	233.109	278.540	311.915	222.509	332.733	86.693	83.613	110.590	193.527	141.626	135.848	130.047	186.532	140.337	105.983	196.033	87.457	31.757
25.000	333.664	335.717	305.039	227.284	272.906	279.041	284.317	228.549	276.558	314.255	222.557	333.688	85.833	84.043	109.182	190.304	146.639	139.716	135.108	191.879	141.864	104.383	195.986	87.552	28.193
26.000	334.261	336.170	306.018	228.191	269.754	277.513	280.832	227.666	276.535	313.896	222.986	333.902	85.356	83.661	108.871	189.587	150.268	141.530	138.498	192.739	142.413	104.455	195.604	87.385	37.803
27.000	333.974	336.529	306.018	228.477	268.656	277.728	279.734	227.952	276.105	313.347	222.461	333.353	85.762	84.855	108.537	189.778	151.103	141.244	139.668	192.404	142.533	105.123	195.962	86.239	51.745
28.000	334.093	336.051	306.687	228.071	267.797	277.991	279.328	228.334	276.367	313.085	222.795	333.759	85.499	83.995	108.465	190.137	151.796	140.766	140.098	191.688	142.342	105.338	195.842	87.146	53.414
29.000	334.165	336.075	307.021	227.833	267.654	278.253	279.375	229.002	276.964	313.729	222.604	333.616	85.428	84.043	108.274	190.447	151.963	140.480	140.551	191.593	142.127	105.434	196.033	87.027	42.135
30.000	334.833	335.908	307.689	230.244	266.006	275.962	276.415	227.093	275.985	314.517	223.010	333.377	84.640	84.664	108.036	187.367	153.443	142.366	142.318	192.763	142.652	103.953	195.675	86.430	29.276
31.000	335.168	336.266	308.047	235.114	262.783	272.977	272.786	224.729	274.672	315.591	222.748	334.189	84.998	84.807	107.248	182.903	156.761	145.851	146.544	194.792	144.371	102.664	196.009	86.955	29.321
32.000	334.595	336.338	308.644	238.958	258.844	269.516	268.441	224.276	274.529	315.520	222.533	333.019	85.881	84.138	106.508	179.131	160.987	149.432	150.865	195.078	144.849	103.524	195.747	86.669	40.691
33.000	333.186	336.099	309.790	240.533	255.621	267.940	266.603	226.615	275.914	312.416	222.939	332.327	87.170	83.852	106.293	177.675	163.995	150.674	153.037	193.479	143.416	106.818	196.248	87.743	53.459
34.000	331.467	336.170	309.814	240.175	255.096	269.468	267.439	231.987	277.370	308.167	223.153	331.061	88.531	84.544	105.696	177.603	165.093	149.743	152.154	188.513	141.172	110.948	195.413	88.459	51.294
35.000	329.772	335.430	309.981	238.862	255.669	271.211	269.778	239.244	279.757	302.580	223.010	329.223	90.011	85.046	105.863	179.083	164.162	147.713	149.767	180.945	139.119	116.941	195.245	90.083	39.202
36.000	327.576	335.192	310.148	235.926	257.316	273.455	272.619	246.120	281.978	295.180	223.941	327.671	91.969	84.878	106.293	181.781	162.157	145.254	146.400	173.162	137.090	124.246	194.816	91.969	28.509
37.000	324.377	334.475	309.313	232.584	259.919	275.962	276.511	253.425	283.506	286.872	224.299	325.642	94.404	85.714	106.174	184.908	159.340	142.604	142.604	165.738	135.323	131.861	193.909	93.807	32.163
38.000	321.942	333.568	309.265	228.740	262.903	278.970	279.901	260.014	285.081	276.893	224.729	322.037	97.579	85.953	106.770	188.943	156.188	139.644	138.809	158.719	133.986	141.745	193.383	97.221	44.887
39.000	317.358	333.592	308.668	224.992	266.460	281.834	283.768	265.839	285.965	265.624	225.493	318.910	101.685	86.669	107.033	193.121	152.798	136.779	135.371	153.371	132.745	152.775	192.882	100.683	52.963
40.000	313.300	331.921	308.692	222.604	269.826	284.222	287.564	271.139	287.134	254.738	225.756	315.424	106.484	86.764	108.155	196.105	149.098	134.249	131.742	148.239	131.861	165.069	192.715	104.311	47.729
41.000	307.236	331.467	307.045	223.774	273.503	287.230	291.145	275.126	287.540	241.990	226.138	311.796	112.596	88.054	108.847	195.556	145.708	131.718	127.970	143.774	131.074	177.460	192.404	108.179	36.765
42.000	299.023	331.014	306.257	227.570	276.367	289.068	293.723	278.373	288.065	229.599	226.544	307.260	120.904	88.913	109.564	191.521	142.079	129.283	125.081	140.169	130.572	190.208	191.999	111.999	29.997
43.000	288.638	330.083	304.657	232.631	280.020	291.336	296.684	281.500	288.567	218.498	227.021	303.893	129.546	89.510	110.996	186.006	138.713	127.063	122.073	136.923	130.238	200.450	191.664	116.368	35.322
44.000	277.824	329.295	303.297	238.098	283.147	293.485	298.976	284.079	288.782	226.281	226.854	299.740	140.790	91.062	112.285	180.802	135.681	124.890	119.853	134.774	129.999	192.715	191.545	120.116	45.699
45.000	265.863	327.791	301.578	243.565	286.132	296.039	301.530	286.299	289.116	236.069	227.116	295.514	152.584	91.277	114.052	175.407	133.103	123.148	117.681	132.220	129.761	183.046	191.282	123.792	50.301
46.000	255.096	326.979	300.193	248.841	288.662	297.543	303.106	288.280	289.259	244.950	227.379	292.052	165.117	92.637	115.962	169.629	130.190	120.975	115.890	130.334	129.665	174.189	191.020	127.731	44.210
47.000	244.019	325.045	297.448	253.783	291.121	299.692	304.562	289.808	289.307	252.566	227.188	288.973	176.457	93.855	118.564	164.640	127.755	119.376	114.243	128.734	129.498	166.478	190.996	131.599	35.818
48.000	233.849	324.974	295.084	258.391	292.816	301.005	305.851	291.408	289.092	258.582	228.215	285.392	185.911	95.431	120.522	160.080	125.917	117.633	113.073	127.206	129.283	159.913	190.662	135.204	32.795
49.000	226.424	323.804	292.434	263.213	295.371	303.034	307.284	292.649	289.546	264.598	228.071	281.858	193.359	96.290	123.339	155.544	123.577	115.604	111.688	125.917	129.331	153.730	190.447	137.830	38.164
50.000	219.716	321.990	288.805	267.391	297.209	305.207	308.429	293.891	289.450	270.136	228.334	278.230	199.590	97.388	126.729	151.080	121.763	113.956	110.829	124.795	129.164	148.907	190.495	141.315	45.383
51.000	219.525	321.130	285.201	271.617	298.403	305.947	309.241	294.989	289.975	274.601	228.286	274.625	200.116	98.964	130.405	146.902	119.996	112.810	109.946	123.768	129.259	144.419	190.137	145.016	47.188
52.000	224.228	319.674	280.832	275.412	300.480	307.069	309.671	295.586	289.617	277.824	228.597	271.951	195.986	99.967	134.678	143.536	118.445	111.497	109.062	123.004	129.140	141.387	190.113	148.143	41.819
53.000	229.098	318.695	276.320	277.871	301.530	307.928	310.459	296.278	289.880	280.521	228.501	269.158	190.041	101.280	139.405	140.313	117.203	110.805	108.585	122.384	129.044	138.307	190.089	151.247	36.043
54.000	234.995	317.310	271.521	280.927	303.082	309.074	311.151	296.899	289.593	282.956	228.143	266.579	183.977	102.067	144.061	137.758	115.723	109.993	108.060	121.763	129.164	136.159	189.946	153.443	35.276
55.000	240.724	316.761	266.842	282.885	303.870	309.599	311.199	297.304	289.665	284.842	228.477	263.882	178.415	103.380	148.907	135.610	114.720	109.206	107.630	121.238	129.092	134.010	189.778	156.117	40.239
56.000	246.621	315.424	262.306	285.057	304.896	309.910	311.605	297.997	289.617	286.561	228.430	261.709	173.258	104.431	153.515	133.628	114.004	108.776	107.248	120.856	129.140	132.434	189.802	158.552	45.157
57.000	251.682	314.493	258.367	286.442	305.612	310.769	312.345	298.379	289.713	287.588	228.740	258.940	168.221	105.481	158.027	132.029	113.288	108.370	107.057	120.450	129.044	131.074	189.635	160.772	44.481
58.000	256.361	313.610	253.950	288.256	306.233	310.960	312.560	298.713	290.071	288.996	228.835	256.839	163.828	106.556	162.539	130.572	112.572	107.869	106.699	119.758	128.997	129.761	189.635	162.969	40.646
59.000	259.704	312.703	249.820	289.307	306.496	311.199	312.655	299.358	289.999	290.166	229.002	255.001	159.220	107.606	166.645	129.164	111.832	107.343	106.532	119.662	129.140	128.830	189.587	165.046	36.765
60.000	263.476	311.127	246.239	290.835	307.379	311.581	312.655	299.095	289.450	291.002	229.026	252.685	156.021	108.919	170.393	128.018	111.474	107.152	106.054	119.328	129.068	127.946	189.564	166.836	37.126
61.000	266.269	309.910	242.754	291.837	307.880	311.939	313.037	299.381	289.713	291.790	229.026	250.751	152.918	109.659	173.926	126.991	111.068	106.842	105.983	119.113	129.068	127.158	189.444	168.746	41.413
62.000	269.325	308.740	240.008	292.410	308.286	312.010	313.204	300.026	289.593	292.530	229.026	249.414	150.698	111.402	177.173	126.203	110.614	106.770	105.863	118.850	128.973	126.299	189.349	170.441	44.571
63.000	271.449	307.952	237.406	293.389	308.215	312.201	313.324	300.145	290.119	293.485	229.146	247.743	148.286	112.190	180.181	125.344	110.375	106.675	105.792	118.516	128.997	125.630	189.444	172.136	42.856
64.000	273.383	306.281	234.493	294.225	308.501	312.201	313.324	300.026	289.808	293.819	229.146	246.430	146.114	113.670	183.046	124.532	109.946	106.436	105.720	118.468	128.949	125.105	189.349	173.735	39.608
65.000	275.007	305.016	232.607	294.440	308.907	312.464	313.586	300.671	289.832	294.344	229.002	244.568	144.347	114.887	185.624	124.079	109.611	106.245	105.625	118.206	129.116	124.532	189.325	174.858	37.532
66.000	276.773	304.108	230.745	295.132	309.026	312.464	313.514	300.671	289.832	295.108	228.764	243.613	142.843	115.890	187.534	123.339	109.301	106.102	105.696	118.039	129.020	124.031	189.229	176.171	38.615
67.000	278.015	302.533	228.859	295.872	309.384	312.846	313.300	300.671	290.190	295.347	229.074	242.205	141.315	117.227	189.301	122.981	109.229	106.054	105.290	117.895	129.044	123.625	189.301	177.245	42.360
68.000	279.877	300.766	227.570	296.588	310.053	312.894	313.562	300.671	289.856	295.609	229.170	241.250	139.931	118.946	191.044	122.527	109.038	105.768	105.481	117.919	129.188	123.410	189.182	178.534	44.300
69.000	281.166	299.644	226.615	296.708	309.838	312.894	313.753	301.124	289.951	296.278	229.408	240.319	138.665	120.187	192.476	122.097	108.967	105.720	105.243	117.657	128.949	122.957	189.253	179.561	42.089
70.000	282.575	298.641	225.803	297.113	309.838	313.324	314.087	301.172	289.856	296.326	228.835	239.077	137.281	121.644	193.503	121.787	108.871	105.744	105.123	117.513	128.949	122.384	189.134	180.659	39.202
71.000	283.004	297.233	225.135	297.710	310.148	313.180	313.586	301.196	289.808	296.946	228.955	238.194	136.374	123.052	194.314	121.238	108.680	105.768	105.171	117.299	128.925	122.240	189.182	181.638	38.164
72.000	284.651	295.896	224.395	297.782	310.435	313.300	314.040	301.435	289.880	297.090	229.313	237.478	135.442	124.103	195.198	121.023	108.561	105.601	105.028	117.155	128.925	121.930	189.205	182.330	39.202
73.000	285.153	294.989	224.490	297.854	310.339	313.467	314.159	301.626	290.047	297.352	229.146	236.666	134.726	125.559	195.580	120.736	108.442	105.577	104.956	116.988	128.877	121.524	189.158	183.165	42.766
74.000	286.179	293.365	224.013	298.164	310.602	313.347	314.087	301.506	290.095	297.663	229.217	235.878	133.556	126.753	196.057	120.307	108.203	105.362	105.075	117.108	128.901	121.309	189.134	183.810	43.308
75.000	286.848	291.885	224.180	299.023	310.769	313.228	314.040	301.697	290.023	297.925	229.265	235.210	132.816	128.066	195.986	120.092	108.155	105.481	105.052	116.917	128.877	120.999	189.134	184.717	40.916
76.000	287.421	290.978	224.371	298.808	310.554	313.347	314.135	301.578	289.904	298.045	229.408	234.326	131.981	129.474	196.057	119.853	107.988	105.481	105.123	117.036	128.901	120.689	188.991	185.362	39.382
77.000	288.161	288.877	224.514	299.190	310.602	313.658	314.207	301.745	289.808	298.164	229.337	233.538	131.312	130.954	195.986	119.638	107.988	105.434	104.956	116.773	128.997	120.641	188.991	186.102	38.931
78.000	288.901	287.445	224.920	299.501	310.912	313.491	314.398	302.031	290.023	298.641	229.504	232.870	130.596	132.100	195.651	119.495	107.988	105.362	104.908	116.845	128.806	120.354	189.062	186.842	40.285
79.000	289.999	286.800	225.159	299.572	310.912	313.729	314.493	302.413	290.047	298.283	229.289	232.679	130.262	133.676	195.293	119.304	107.940	105.314	104.789	116.654	128.925	120.354	188.991	187.439	42.811
80.000	290.644	284.771	225.636	299.835	311.294	313.801	314.541	302.270	289.880	298.785	229.599	231.485	129.617	135.060	195.222	119.065	107.654	105.147	104.717	116.654	128.925	120.211	189.110	188.036	42.405
81.000	290.691	283.816	225.875	299.668	310.984	313.753	314.541	302.318	289.975	298.952	229.313	231.247	129.116	136.541	194.720	118.803	107.630	105.243	104.813	116.654	128.973	119.853	188.895	188.609	40.239
82.000	291.145	282.121	226.615	300.026	311.032	313.538	314.183	302.127	290.023	298.880	229.504	230.841	128.495	137.925	194.195	118.659	107.630	105.052	104.813	116.559	128.997	119.829	188.991	189.229	39.202
83.000	291.694	280.689	227.164	299.763	311.008	313.705	314.637	302.580	290.047	298.952	229.432	229.981	127.946	139.286	193.670	118.636	107.582	105.123	104.861	116.559	128.949	119.590	189.038	189.611	39.202
84.000	292.458	279.208	227.188	299.931	310.960	313.825	314.493	302.604	290.023	299.763	229.361	229.790	127.397	140.504	193.383	118.373	107.558	105.219	104.717	116.439	128.853	119.447	188.967	189.993	41.007
85.000	292.816	277.609	227.904	300.384	311.318	313.992	314.350	302.533	289.904	299.310	229.766	228.835	127.039	141.936	192.834	118.373	107.439	105.004	104.693	116.344	128.901	119.352	188.919	190.590	42.631
86.000	293.318	276.845	228.382	300.527	311.390	313.944	314.422	302.676	290.333	299.334	229.361	228.382	126.681	143.106	192.214	118.301	107.511	105.123	104.598	116.296	128.782	119.161	188.895	190.996	41.683
87.000	293.580	275.484	228.644	300.503	311.390	313.920	314.756	302.748	290.190	299.811	229.480	228.262	126.132	144.419	191.879	118.086	107.343	105.028	104.693	116.320	129.044	119.113	188.967	191.354	39.698
88.000	293.938	273.717	228.979	300.742	311.366	313.992	314.398	302.580	290.095	300.026	229.050	227.833	125.750	145.780	191.282	118.015	107.415	105.028	104.598	116.224	128.901	118.874	188.967	191.736	39.292
89.000	294.010	273.121	228.979	300.814	311.270	313.873	314.469	302.485	290.166	300.289	229.361	227.689	125.630	146.830	190.757	117.848	107.439	105.004	104.574	116.105	128.830	118.946	188.967	192.046	39.157
90.000	294.654	271.497	229.647	301.100	311.605	313.634	314.517	302.771	290.286	300.098	229.695	227.331	125.320	148.215	190.686	117.681	107.391	105.004	104.598	116.177	128.758	118.731	188.895	192.667	41.367
91.000	295.251	270.304	229.957	301.148	311.700	314.398	314.565	302.676	290.262	300.145	229.408	226.926	124.867	149.313	190.065	117.728	107.224	104.741	104.502	116.081	128.973	118.731	188.847	192.834	42.315
92.000	295.538	268.967	230.292	301.172	311.533	314.231	314.804	302.676	289.856	300.312	229.743	226.448	124.341	150.745	189.516	117.513	107.224	105.052	104.646	116.105	128.782	118.516	188.895	193.288	41.097
93.000	295.705	267.821	230.888	301.172	311.676	314.087	314.660	302.843	290.119	300.456	229.241	226.066	124.246	151.844	189.349	117.299	107.152	105.028	104.431	116.081	128.734	118.373	188.847	193.670	39.472
94.000	295.800	266.866	231.175	300.933	311.438	314.087	314.565	302.652	289.904	300.575	229.504	225.851	123.816	153.109	189.014	117.299	107.057	104.908	104.383	115.914	128.901	118.373	188.776	194.004	39.066
95.000	295.872	265.744	231.366	301.244	311.772	314.040	314.446	302.748	290.047	300.647	229.552	225.469	123.315	154.183	188.394	117.299	107.200	104.932	104.622	115.842	128.806	118.230	188.609	194.362	39.833
96.000	295.824	264.168	232.273	301.267	311.390	313.873	314.374	302.509	290.429	301.053	229.671	225.350	123.219	155.401	188.131	117.060	107.200	105.123	104.646	115.890	128.877	118.086	188.800	194.577	41.638
97.000	296.445	263.428	232.202	301.458	311.605	313.825	314.493	302.795	290.142	300.742	229.265	224.801	122.957	156.379	187.678	116.964	106.866	104.980	104.574	116.057	128.877	118.063	188.800	194.863	41.864
98.000	297.018	262.043	232.488	301.769	311.700	314.111	314.708	302.652	290.142	300.981	229.790	224.634	122.766	157.573	187.463	117.012	107.009	104.932	104.598	115.842	128.710	117.800	188.847	195.126	40.510
99.000	297.018	261.088	232.942	301.793	311.843	314.231	314.589	302.819	289.928	300.981	229.432	224.634	122.408	158.647	187.009	116.869	106.938	104.861	104.526	115.938	128.973	117.919	188.800	195.365	39.202
100.000	297.734	259.895	233.156	301.817	312.130	314.231	314.875	303.010	289.880	300.694	229.552	224.037	122.217	159.817	186.794	116.821	107.009	104.741	104.383	115.699	128.734	117.800	188.800	195.675	39.292
101.000	297.472	259.059	233.300	301.697	311.700	314.326	314.899	302.915	289.928	301.482	229.408	223.655	122.097	160.892	186.341	116.821	107.033	104.789	104.431	115.866	128.877	117.657	188.728	195.818	40.375
102.000	297.997	257.746	234.135	301.888	312.178	314.111	314.660	303.153	290.166	301.387	229.480	223.631	121.835	161.990	185.959	116.773	106.842	104.765	104.574	115.866	128.877	117.681	188.823	196.272	41.548
103.000	297.949	257.245	233.825	301.817	311.891	313.849	314.422	302.748	290.381	301.387	229.432	223.249	121.524	162.945	185.815	116.678	106.842	104.861	104.479	115.818	128.758	117.537	188.752	196.463	41.322
104.000	298.546	255.550	234.517	302.103	312.297	314.446	314.565	302.986	290.119	301.339	230.005	223.058	121.500	164.043	185.362	116.582	106.914	104.693	104.359	115.842	128.901	117.585	188.823	196.797	39.879
105.000	298.331	254.666	234.708	302.079	311.963	314.183	314.565	303.058	290.047	301.363	229.575	222.509	121.023	164.831	185.075	116.535	106.818	104.765	104.479	115.771	128.853	117.322	188.776	196.797	39.337
106.000	298.713	253.807	234.684	302.628	312.130	314.064	314.469	302.819	290.095	301.458	229.408	222.628	120.617	166.024	184.813	116.296	106.651	104.693	104.479	115.914	128.925	117.394	188.800	197.131	39.382
107.000	298.999	252.709	235.114	302.461	312.034	314.064	314.541	303.488	290.238	301.458	229.575	222.628	120.474	166.955	184.502	116.535	106.723	104.693	104.455	115.675	128.877	117.346	188.847	197.322	40.736
108.000	299.286	252.160	235.162	302.055	311.628	313.825	314.947	303.344	290.095	301.506	229.361	222.222	120.522	167.886	184.216	116.368	106.938	104.932	104.407	115.699	128.686	117.227	188.752	197.394	41.728
109.000	299.190	250.847	235.711	302.437	312.106	314.398	314.660	303.177	290.023	301.530	229.719	221.936	120.163	168.865	183.929	116.272	106.747	104.646	104.288	115.651	128.901	117.203	188.704	197.609	40.826
110.000	299.763	249.772	235.639	302.628	312.082	314.135	314.923	302.986	289.904	301.745	229.743	221.697	119.996	169.987	183.715	116.224	106.675	104.574	104.383	115.651	128.710	117.108	188.800	197.872	39.698
111.000	299.549	248.770	235.926	302.318	312.392	314.111	314.828	303.201	290.071	301.864	229.647	221.267	119.781	171.086	183.595	116.224	106.723	104.550	104.288	115.580	128.806	116.893	188.823	198.158	39.247
112.000	300.265	247.409	236.690	302.557	312.201	314.183	314.828	303.273	290.142	301.745	229.647	220.838	119.590	172.255	183.094	116.200	106.651	104.693	104.359	115.532	128.782	116.869	188.704	198.612	39.924
113.000	300.456	246.048	236.523	302.700	312.345	314.231	314.732	303.010	290.095	302.055	229.599	220.933	119.399	173.521	182.760	116.057	106.675	104.622	104.311	115.508	128.782	116.773	188.895	198.707	41.007
114.000	300.432	245.618	237.215	302.891	312.631	314.326	314.637	303.010	289.999	302.198	229.671	220.790	119.256	174.356	182.521	116.033	106.770	104.622	104.288	115.460	128.686	116.964	188.823	198.803	41.413
115.000	300.766	244.544	237.406	302.795	312.178	314.541	314.995	303.297	289.975	301.936	229.719	220.695	119.137	175.072	182.211	115.986	106.484	104.574	104.311	115.365	128.710	116.821	188.680	198.970	40.465
116.000	300.814	243.732	237.024	302.843	312.655	314.469	315.114	303.201	290.047	302.270	229.719	220.671	118.898	176.218	182.067	115.986	106.556	104.693	104.359	115.508	128.877	116.821	188.728	199.017	39.608
117.000	300.957	243.231	237.740	302.819	312.130	314.135	314.971	303.488	290.142	302.127	229.719	220.432	119.018	176.911	181.948	115.723	106.556	104.646	104.407	115.460	128.734	116.750	188.704	199.089	39.337
118.000	300.814	242.205	238.146	302.437	311.891	314.183	314.708	303.655	290.644	302.079	229.695	220.313	118.731	177.675	181.805	115.675	106.627	104.479	104.311	115.484	128.758	116.797	188.561	199.065	40.149
119.000	301.148	241.082	238.074	302.819	312.201	314.565	314.947	303.416	289.999	302.222	229.838	220.217	118.636	178.558	181.566	115.842	106.627	104.622	104.359	115.389	128.830	116.702	188.656	199.280	41.097
120.000	300.838	240.199	238.051	302.676	312.201	314.493	315.019	303.153	290.453	302.270	229.384	220.122	118.779	179.322	181.423	115.699	106.556	104.693	104.383	115.604	128.830	116.702	188.632	199.352	41.007
121.000	300.981	239.602	238.791	302.580	312.178	314.111	314.875	303.631	290.572	302.437	229.432	220.169	118.659	180.181	181.256	115.771	106.412	104.598	104.240	115.365	128.662	116.582	188.585	199.519	40.194
122.000	300.718	238.862	238.433	302.604	311.987	314.064	314.565	303.344	290.381	302.604	229.623	219.859	118.301	180.897	181.017	115.818	106.579	104.789	104.383	115.341	128.758	116.487	188.489	199.495	39.382
123.000	301.530	237.955	238.600	303.082	312.321	314.087	314.756	303.512	290.429	302.557	229.886	219.596	117.991	181.924	180.754	115.627	106.460	104.646	104.335	115.389	128.758	116.582	188.632	199.638	39.608
124.000	301.411	236.976	239.005	302.915	312.201	314.135	314.923	303.249	290.572	302.700	229.814	219.453	117.824	182.545	180.516	115.627	106.436	104.598	104.311	115.413	128.949	116.368	188.442	199.972	40.510
125.000	301.864	236.212	238.838	303.058	312.416	314.469	315.090	303.273	290.214	302.557	229.862	219.501	117.752	183.261	180.396	115.580	106.388	104.574	104.311	115.436	128.806	116.559	188.513	199.877	41.187
126.000	302.127	235.902	239.077	303.082	312.512	314.565	314.732	303.440	290.357	302.580	229.838	219.572	117.633	184.097	180.134	115.675	106.532	104.574	104.288	115.246	128.806	116.439	188.656	200.092	40.961
127.000	301.435	234.756	239.602	303.153	312.321	314.016	314.613	303.440	290.238	302.628	229.695	219.214	117.561	184.884	180.062	115.508	106.508	104.550	104.264	115.126	128.639	116.320	188.632	200.163	40.059
128.000	302.270	234.350	239.746	303.130	312.178	314.111	314.995	303.583	290.286	302.389	229.647	219.596	117.490	185.529	179.871	115.413	106.412	104.598	104.335	115.246	128.710	116.248	188.609	200.330	39.427
