-----------------------------------------------------
BloodHound 307 VOC Analyser V2017.1
RoboScientific Ltd 
Espace North
Wisbech Road
Littleport
Cambridgeshire, UK
CB6 1RA 
-----------------------------------------------------
Date = 21/04/2022
Time = 11:42:50
Data is protected by RoboScientific Limited
-----------------------------------------------------
Name of the experiment = "44b_Day 35"
-----------------------------------------------------
Repeat No. = 3/4
-----------------------------------------------------
Experimental Time (in sec) and Flow Profile :
-----------------------------------------------------
Baseline = 2.00
Absorb = 4.00
Pause = 1.00
Desorb = 5.00
Flush = 20.00
Wait = 5.00
Higher Flow (V) = 4.00
Medium Flow (V) = 3.00
Low Flow (V) = 1.00
-----------------------------------------------------
Total Profile Time = 37 in sec
-----------------------------------------------------
Acquired data point per second = 4
--------------------------------------------------
Total data point stored  = 128
-----------------------------------------------------
Acquired sensor responses from 24 sensors
-----------------------------------------------------

Data Points	 Sen-1	 Sen-2	 Sen-3	 Sen-4	 Sen-5	 Sen-6	 Sen-7	 Sen-8	 Sen-9	 Sen-10	 Sen-11	 Sen-12	 Sen-13	 Sen-14	 Sen-15	 Sen-16	 Sen-17	 Sen-18	 Sen-19	 Sen-20	 Sen-21	 Sen-22	 Sen-23	 Sen-24	Humidity (%r.h.)
0.000	300.838	263.619	243.303	303.846	312.703	313.968	314.637	303.058	290.286	301.697	228.931	224.299	118.301	156.045	176.385	114.887	105.792	104.693	104.192	115.675	128.686	117.251	189.349	195.317	39.563
1.000	301.100	263.643	243.159	303.679	313.013	314.111	314.804	302.986	290.381	301.482	228.788	224.108	118.349	156.499	176.171	114.864	105.863	104.693	104.335	115.675	128.877	117.466	189.420	195.317	39.157
2.000	301.029	262.903	243.231	303.512	313.276	314.469	314.828	302.843	289.904	301.554	229.170	223.894	118.349	156.881	176.003	114.864	105.959	104.741	104.311	115.675	128.830	117.370	189.444	195.436	39.157
3.000	301.244	262.807	243.541	303.655	312.870	314.326	314.660	302.867	290.142	301.840	229.002	224.061	118.516	156.833	175.932	114.864	105.792	104.646	104.335	115.699	128.806	117.132	189.420	195.484	40.736
4.000	301.339	262.139	243.971	303.631	312.918	314.159	314.589	302.962	290.166	301.673	228.955	223.798	118.564	157.334	175.836	114.768	105.839	104.670	104.311	115.604	128.830	117.251	189.301	195.580	41.413
5.000	301.673	261.900	243.732	303.631	312.751	314.398	315.138	303.034	290.357	301.721	228.979	223.774	118.445	157.525	175.454	114.792	105.887	104.646	104.311	115.675	128.686	117.227	189.420	195.580	41.367
6.000	301.769	261.805	243.971	303.703	313.276	314.374	314.971	303.297	290.190	301.411	229.122	223.655	118.134	158.242	175.669	114.840	105.768	104.741	104.288	115.795	128.734	117.084	189.373	195.771	39.924
7.000	300.981	261.637	243.732	303.822	312.870	314.087	314.589	303.368	290.286	301.626	228.644	223.392	118.254	158.385	175.478	114.696	105.863	104.741	104.264	115.580	128.734	117.060	189.444	195.890	39.157
8.000	301.626	260.874	244.091	303.893	313.085	314.255	315.138	303.392	290.357	301.578	228.907	223.559	117.824	158.624	175.287	114.696	105.815	104.646	104.311	115.795	128.830	117.060	189.396	195.938	39.112
9.000	301.530	260.802	244.067	303.965	312.942	314.350	314.971	303.106	289.928	301.697	229.050	223.607	117.872	159.077	175.216	114.840	105.720	104.598	104.120	115.675	128.806	117.084	189.396	196.105	40.149
10.000	298.522	283.720	243.780	303.917	312.942	314.374	314.732	302.771	290.453	300.742	228.310	257.651	120.474	136.421	175.311	114.625	105.672	104.741	104.359	115.938	128.567	118.158	189.564	162.825	41.683
11.000	260.324	303.440	240.533	302.724	312.488	313.467	314.684	301.506	290.620	284.317	227.164	285.224	157.669	116.105	178.128	116.153	106.221	105.123	104.431	116.893	128.233	133.556	191.068	133.986	45.022
12.000	237.979	314.899	232.202	299.859	311.605	312.774	314.326	299.405	291.288	239.913	225.971	301.387	179.131	105.052	187.319	118.516	106.914	105.983	104.646	119.137	127.707	176.123	192.381	118.588	42.766
13.000	264.025	321.154	230.483	296.636	310.793	311.628	314.040	296.588	291.097	225.971	224.777	310.865	153.634	99.059	188.776	121.858	107.701	106.914	105.123	122.026	127.684	192.404	193.312	109.253	34.058
14.000	284.556	325.260	241.703	292.410	310.124	310.817	313.419	293.914	290.500	242.968	224.729	317.072	135.466	94.690	176.123	126.156	108.442	107.892	105.720	125.129	128.042	176.314	193.980	103.882	30.313
15.000	298.808	328.722	253.473	287.254	309.241	309.742	312.560	290.453	290.166	256.815	224.013	321.464	121.047	91.802	162.921	131.288	109.707	109.158	106.508	128.257	128.639	161.393	194.553	99.799	36.179
16.000	308.644	329.748	263.452	281.333	307.546	308.191	311.867	286.991	289.235	268.322	223.607	324.258	110.566	89.940	152.178	137.328	111.044	110.542	107.200	131.933	129.450	150.292	194.720	97.102	47.729
17.000	315.042	331.420	270.829	275.317	306.687	306.663	310.865	282.670	288.614	276.057	223.249	325.785	103.524	88.078	143.750	143.846	112.381	112.190	108.298	136.230	130.405	141.482	195.126	94.595	53.369
18.000	320.271	332.303	277.155	268.250	304.562	304.681	309.480	278.039	287.373	283.983	222.843	328.316	98.080	87.982	136.278	150.268	114.028	113.718	109.301	140.766	131.241	133.938	195.198	92.566	48.090
19.000	323.470	334.141	282.384	261.017	302.557	302.700	308.358	272.524	286.418	289.569	222.915	329.438	94.428	87.003	130.334	157.311	116.105	115.938	110.901	146.257	132.339	128.233	195.484	91.897	36.856
20.000	326.693	333.377	286.633	254.810	300.575	300.050	306.782	267.152	285.272	294.320	222.533	329.557	93.091	86.215	126.275	163.637	118.182	118.349	112.476	151.700	133.413	124.317	195.914	90.727	28.148
21.000	328.388	333.807	290.262	248.149	298.283	297.758	304.132	261.136	284.508	298.068	222.676	331.109	91.157	85.762	122.694	170.274	120.354	121.118	114.959	157.979	134.440	120.283	196.176	90.584	32.344
22.000	329.629	334.642	293.246	242.324	296.278	294.726	301.697	255.717	282.980	301.840	222.581	331.587	89.080	85.308	119.328	177.507	122.933	123.816	117.227	164.138	135.777	116.821	195.938	89.796	44.526
23.000	330.608	334.237	295.490	236.069	293.437	291.837	299.047	249.558	281.715	304.419	221.984	331.706	88.030	85.380	116.487	183.524	125.630	126.753	119.972	169.963	136.994	114.028	195.962	88.006	53.685
24.000	331.348	335.048	297.185	230.435	290.524	289.044	295.800	243.900	280.784	306.806	222.151	332.780	87.934	84.592	115.341	189.014	128.400	130.023	123.553	175.693	138.164	111.402	196.153	89.032	51.519
25.000	332.733	335.168	298.880	226.520	287.110	285.368	291.814	238.218	279.375	308.883	222.843	332.995	86.812	84.807	113.240	193.479	131.718	133.007	127.302	181.518	139.501	109.778	196.558	88.197	40.555
26.000	332.589	335.287	299.787	225.445	285.368	284.556	289.307	236.905	279.113	308.692	222.557	332.804	86.860	84.258	113.383	194.529	133.628	134.440	129.737	183.046	140.098	110.160	196.558	87.719	29.817
27.000	333.019	335.502	300.408	225.302	285.177	284.628	288.638	237.310	279.017	308.191	222.342	332.518	86.693	84.473	112.142	194.505	134.416	134.082	130.405	182.616	139.787	110.805	196.630	88.388	28.509
28.000	332.160	335.239	299.978	225.541	284.651	285.081	288.447	237.692	278.946	308.024	222.246	333.043	86.717	84.759	112.619	194.863	134.678	133.938	130.978	182.020	139.764	110.686	196.153	87.719	37.668
29.000	332.709	336.457	300.503	225.326	284.437	285.248	288.400	238.098	279.423	307.427	222.461	332.112	86.932	84.974	112.643	194.553	134.917	133.724	131.241	181.494	139.716	111.115	196.511	87.719	50.888
30.000	334.308	335.430	301.148	225.135	283.625	283.983	287.230	237.191	278.755	308.788	222.366	332.112	85.905	84.449	112.691	195.007	135.586	134.678	132.267	182.521	139.955	109.588	195.938	87.791	53.730
31.000	333.568	335.884	301.435	224.085	281.238	280.927	283.458	233.085	277.991	310.960	222.342	333.616	85.523	84.162	111.259	194.553	137.734	137.519	135.395	186.579	141.172	107.797	196.367	87.934	44.887
32.000	334.762	335.574	302.318	225.875	278.755	277.513	280.187	229.193	276.272	312.870	222.604	333.019	85.069	84.258	110.924	191.855	140.575	140.981	139.119	190.781	142.628	105.768	196.105	87.696	32.299
33.000	335.263	336.170	303.750	229.552	275.508	274.314	276.248	225.947	275.030	314.183	222.413	333.282	84.664	84.377	109.898	188.060	143.774	144.276	143.177	194.314	144.061	104.359	196.415	87.648	27.787
34.000	334.237	335.526	304.634	233.515	272.667	271.306	272.357	224.252	273.789	314.899	222.557	333.210	85.619	84.855	108.943	184.335	146.997	147.451	147.188	195.078	145.493	103.691	196.296	87.266	33.697
35.000	333.759	335.884	304.610	235.711	269.182	269.110	268.752	224.371	273.694	313.729	222.270	332.971	85.619	85.069	108.036	181.805	150.339	149.456	150.578	194.983	145.350	105.386	196.224	87.027	46.692
36.000	332.566	335.263	304.896	236.236	267.582	269.229	268.036	227.164	274.720	310.172	222.246	330.751	86.979	85.237	108.346	181.136	151.963	149.910	151.366	192.810	144.013	107.320	195.842	88.364	54.497
37.000	330.942	335.597	305.398	236.547	267.319	270.041	269.349	232.607	277.084	306.233	222.628	330.799	88.746	84.544	108.107	181.805	152.225	148.740	150.077	187.534	141.817	112.882	196.057	89.820	48.226
38.000	329.868	334.738	306.042	233.825	268.036	271.784	271.402	238.600	278.946	300.193	223.058	329.343	89.820	85.093	108.131	183.691	151.151	146.878	147.666	180.874	139.477	118.349	195.198	90.918	36.449
39.000	328.435	335.359	305.589	231.199	269.778	273.741	274.577	245.380	281.285	293.485	222.986	326.454	91.778	85.093	108.609	186.317	149.241	144.586	144.562	173.592	137.878	125.511	195.341	92.375	27.832
40.000	325.642	334.619	304.872	227.880	272.237	276.487	277.561	252.088	282.718	286.179	223.846	324.735	93.736	85.786	108.322	189.611	146.830	142.079	141.244	166.788	136.135	133.151	194.720	93.664	32.569
41.000	323.446	333.640	304.538	225.135	274.816	279.017	281.023	258.200	284.126	276.176	224.132	322.491	95.956	86.430	109.110	192.643	144.419	139.358	137.734	160.438	134.726	142.223	193.980	96.815	42.811
42.000	319.578	333.234	303.774	223.249	277.442	281.357	284.556	263.595	285.487	266.651	224.586	319.149	98.701	86.144	109.946	195.365	141.745	137.328	134.846	155.281	133.628	151.533	193.503	99.465	51.925
43.000	317.692	333.115	303.464	223.894	279.948	283.864	287.755	268.561	286.442	256.624	225.350	315.878	102.521	87.791	110.471	195.580	139.238	134.869	131.050	150.316	132.625	162.587	193.312	103.213	50.256
44.000	313.252	331.802	303.177	226.806	282.216	286.156	290.882	272.930	287.230	245.738	225.517	313.013	106.365	87.839	111.306	192.261	136.564	132.267	128.089	146.018	131.742	173.377	192.715	106.484	40.826
45.000	308.000	331.754	301.530	231.103	284.651	288.567	293.843	275.771	287.492	235.233	225.469	309.552	111.139	88.555	111.975	187.988	133.915	130.238	125.487	142.533	131.312	184.407	192.643	110.017	31.171
46.000	302.007	330.035	300.814	236.021	287.445	290.357	296.230	279.161	287.851	223.965	226.066	306.472	117.442	88.746	113.431	182.831	131.456	128.089	122.646	139.310	130.739	194.887	192.381	113.025	31.216
47.000	295.323	329.510	299.429	241.154	289.522	292.291	298.594	281.930	288.519	217.734	226.018	302.437	123.983	90.011	114.577	177.675	129.188	126.156	120.402	136.875	130.381	200.689	191.999	116.296	39.202
48.000	288.209	328.579	297.686	246.215	291.909	294.225	300.456	284.293	288.495	226.090	226.639	299.047	131.742	90.536	116.344	172.852	127.087	124.532	118.540	134.607	130.166	192.810	191.999	120.163	48.316
49.000	279.161	328.149	295.991	251.348	293.962	296.493	302.485	286.370	289.140	235.353	226.902	296.922	140.146	91.109	118.325	167.695	125.201	122.527	116.535	132.363	129.928	183.571	191.784	123.339	49.805
50.000	270.113	327.409	294.034	256.767	295.824	298.570	304.037	288.089	289.259	244.472	226.878	292.339	149.934	92.613	119.805	161.823	122.885	120.092	114.911	130.429	129.856	174.571	191.497	127.349	42.360
51.000	260.301	326.263	291.241	261.232	297.328	300.241	305.589	289.880	289.140	251.873	227.116	288.543	159.388	93.616	123.076	156.761	121.381	118.373	113.455	128.686	129.570	166.741	191.211	131.050	34.554
52.000	251.396	325.475	289.092	265.696	298.880	302.127	306.854	291.384	289.164	258.606	227.069	285.463	168.459	93.736	125.869	152.536	119.519	116.463	112.214	127.325	129.546	160.080	191.282	134.368	32.885
53.000	243.350	324.305	285.248	270.089	300.503	303.679	308.095	292.482	289.283	263.834	227.546	282.431	176.147	95.335	128.949	148.406	118.277	114.983	111.115	126.180	129.450	155.066	191.044	137.472	38.525
54.000	235.950	323.756	281.285	273.550	301.482	304.801	308.573	293.270	289.569	268.298	227.570	279.065	182.616	96.290	132.816	145.398	117.012	113.741	110.328	125.105	129.450	150.602	190.900	140.384	45.248
55.000	231.270	322.658	277.203	276.535	302.748	306.114	309.146	294.583	289.617	271.521	227.618	276.702	188.513	96.672	136.732	142.246	115.723	112.548	109.564	124.365	129.426	147.308	190.948	143.106	47.910
56.000	226.687	322.586	273.622	279.065	303.965	306.878	309.886	294.989	289.450	274.672	227.546	274.362	192.906	97.890	140.814	139.453	114.744	111.593	108.943	123.625	129.379	144.419	190.733	145.589	43.172
57.000	223.631	321.106	269.540	281.333	304.729	308.000	310.697	295.777	289.689	277.394	227.546	272.404	196.415	98.701	145.541	137.114	113.932	111.020	108.513	123.052	129.283	141.435	190.805	147.642	38.164
58.000	220.790	320.056	265.553	283.410	305.326	308.525	311.056	296.182	289.378	279.280	227.666	270.256	199.185	99.561	149.599	135.037	113.073	110.280	107.988	122.503	129.259	139.501	190.638	149.671	34.329
59.000	219.668	319.698	261.996	285.081	305.970	308.931	311.438	296.731	289.283	281.214	228.095	268.012	200.354	100.539	153.371	133.413	112.381	109.516	107.558	121.954	129.259	137.472	190.590	151.629	37.352
60.000	222.843	318.934	257.627	286.848	306.878	309.623	311.796	297.137	289.498	282.789	227.785	265.959	197.108	101.303	157.907	131.861	111.832	109.134	107.248	121.333	129.188	135.896	190.518	153.706	42.495
61.000	227.594	318.170	253.783	287.946	307.355	309.981	311.796	297.519	289.617	284.007	227.809	264.001	192.118	101.924	161.966	130.453	111.211	108.489	107.033	121.071	129.259	134.464	190.399	155.639	46.015
62.000	232.584	317.287	250.298	289.235	308.143	310.387	312.225	297.973	289.737	285.654	228.191	262.760	186.937	102.163	165.857	129.331	110.901	108.179	106.675	120.689	129.068	133.389	190.256	157.072	44.300
63.000	237.788	316.546	247.099	290.477	308.215	310.745	312.154	298.116	289.593	286.943	228.095	260.778	181.709	103.022	169.701	128.257	110.519	108.060	106.723	120.450	129.116	132.124	190.304	158.671	40.104
64.000	242.228	315.806	243.685	291.264	308.573	311.223	312.727	298.737	289.546	287.874	228.358	259.393	176.982	103.882	172.757	127.254	110.208	107.606	106.293	120.044	129.020	131.097	190.184	160.342	36.134
65.000	246.430	315.233	240.939	292.172	309.217	311.056	312.703	298.952	289.880	288.304	228.071	258.176	173.139	104.550	175.884	126.394	109.778	107.320	106.293	119.853	129.307	130.286	190.280	161.870	36.540
66.000	250.727	314.637	238.361	293.007	309.050	311.557	312.942	299.167	289.641	289.355	228.215	256.696	169.009	105.266	178.773	125.439	109.492	107.105	106.006	119.590	129.092	129.689	190.160	163.279	40.826
67.000	253.783	313.658	236.356	293.365	309.217	311.939	313.347	299.549	289.689	289.856	227.952	255.239	166.000	106.078	181.279	124.986	109.349	106.985	105.983	119.447	129.116	128.758	190.041	164.520	44.481
68.000	256.815	313.204	233.920	294.344	309.504	311.700	313.324	299.835	289.975	290.811	227.904	253.640	162.825	106.938	183.547	124.341	108.919	106.794	105.983	119.376	129.044	128.209	190.065	165.809	44.616
69.000	259.656	312.297	232.321	294.702	309.838	312.130	313.204	299.954	290.190	291.646	228.501	252.876	160.151	107.129	185.768	123.768	108.847	106.699	105.672	119.041	129.092	127.660	190.089	166.955	40.510
70.000	261.876	311.557	230.435	295.633	310.363	312.154	313.586	299.787	289.880	291.861	228.310	251.276	157.263	108.107	187.845	123.100	108.633	106.579	105.792	118.946	129.092	126.967	190.041	168.268	37.848
71.000	264.431	311.127	229.361	296.111	310.411	312.488	313.419	299.716	289.569	292.315	228.740	250.536	155.210	108.561	189.110	122.718	108.418	106.341	105.625	118.731	129.092	126.633	189.898	169.319	36.946
72.000	266.627	310.578	228.215	296.517	310.268	312.392	313.514	300.074	289.546	292.649	228.621	249.343	153.109	109.229	190.662	122.312	108.155	106.245	105.457	118.516	129.092	126.251	189.826	170.322	39.472
73.000	268.776	310.196	227.116	296.875	310.674	312.607	313.658	300.265	289.832	293.294	228.501	248.603	151.533	109.635	191.951	121.858	108.179	106.221	105.386	118.301	129.068	125.845	189.874	171.300	43.488
74.000	270.256	309.599	226.615	296.994	310.554	312.607	313.586	300.336	289.498	293.270	228.597	247.361	149.790	110.495	192.715	121.429	108.036	106.174	105.410	118.182	129.044	125.439	189.778	172.351	44.436
75.000	271.497	309.050	225.971	297.376	310.697	312.774	313.682	300.551	289.999	294.058	228.334	246.836	148.239	110.829	193.813	121.142	107.869	105.935	105.338	118.301	129.020	124.986	189.898	173.186	41.909
76.000	273.240	308.406	225.875	297.663	310.912	312.727	313.896	300.862	290.381	294.535	228.668	245.642	146.735	111.211	194.338	120.832	107.845	105.887	105.171	118.086	128.997	124.652	189.802	174.094	38.886
77.000	274.481	308.047	225.469	297.615	310.960	312.918	314.016	300.742	290.047	294.941	228.048	245.260	145.445	112.142	194.792	120.522	107.797	105.935	105.243	118.110	129.020	124.437	189.778	174.714	37.442
78.000	275.245	307.522	225.684	298.235	311.151	313.109	313.729	300.790	289.760	294.941	228.597	244.162	144.204	112.596	195.054	120.307	107.701	105.863	105.171	117.752	128.997	124.246	189.778	175.621	38.841
79.000	277.012	306.639	225.087	298.498	311.056	313.109	314.040	300.909	290.310	295.347	228.430	243.398	142.891	113.169	194.911	120.068	107.606	105.672	105.147	117.800	129.044	123.864	189.683	176.385	42.541
80.000	278.158	306.591	226.090	298.904	311.509	313.156	314.016	300.957	289.928	295.204	228.573	242.801	141.936	113.813	194.696	119.781	107.534	105.529	105.243	117.824	129.116	123.649	189.707	176.839	44.255
81.000	279.041	305.517	225.899	299.453	311.581	312.965	314.064	301.267	290.214	295.466	228.859	241.918	140.766	114.458	194.792	119.519	107.463	105.505	104.980	117.633	128.973	123.434	189.778	177.746	42.631
82.000	279.781	305.159	226.233	299.214	311.390	313.252	314.231	301.220	290.023	295.872	228.358	241.536	139.716	114.720	194.529	119.328	107.415	105.625	104.980	117.537	128.877	123.004	189.707	178.200	39.563
83.000	280.736	304.180	226.281	299.525	311.724	313.324	314.016	301.244	289.904	295.920	228.501	240.796	139.119	115.246	194.219	119.137	107.272	105.529	105.075	117.609	129.044	122.957	189.802	179.011	38.390
84.000	281.667	304.204	226.544	299.477	311.700	313.347	313.801	301.267	289.999	296.182	228.812	240.199	138.116	116.009	193.932	119.065	107.224	105.625	104.884	117.394	128.973	122.790	189.683	179.584	38.390
85.000	282.216	303.368	227.260	299.763	311.509	313.610	314.302	301.554	289.784	296.421	228.573	239.173	137.639	116.463	193.718	118.827	107.176	105.410	104.884	117.322	129.068	122.503	189.659	180.062	41.638
86.000	282.646	302.580	227.355	300.098	311.509	313.467	314.255	301.745	289.880	296.684	228.382	239.029	136.827	117.108	193.145	118.636	107.224	105.577	104.861	117.251	129.044	122.288	189.707	180.539	43.623
87.000	283.577	302.509	227.880	300.050	311.605	313.467	314.278	301.363	289.832	296.684	228.549	238.647	136.159	117.848	192.595	118.588	107.081	105.338	104.789	117.203	128.877	122.193	189.683	181.160	43.037
88.000	283.840	301.506	228.573	300.121	311.509	313.276	313.920	301.339	289.856	296.755	228.477	238.289	135.538	118.039	192.237	118.445	106.985	105.338	104.861	117.227	128.973	122.026	189.659	181.494	40.149
89.000	284.914	301.172	228.883	300.336	311.676	313.204	314.350	301.649	289.951	296.851	228.501	238.003	134.917	118.564	191.760	118.277	106.890	105.266	104.813	117.155	128.949	121.811	189.635	181.924	38.705
90.000	285.654	300.838	229.384	300.289	311.533	313.276	314.326	301.697	290.333	297.233	228.812	237.143	134.225	118.922	191.306	118.134	106.938	105.171	104.956	117.084	128.973	121.835	189.635	182.187	38.525
91.000	286.394	300.432	229.193	300.885	312.058	313.705	314.207	301.482	289.975	297.304	228.692	236.857	133.437	119.710	190.996	118.039	107.057	105.290	104.622	117.012	128.901	121.596	189.587	182.688	40.239
92.000	286.681	299.859	229.599	300.766	311.796	313.849	314.398	301.864	289.928	297.519	228.692	236.618	133.389	120.116	190.614	117.943	106.842	105.362	104.741	117.060	129.020	121.476	189.611	183.261	42.992
93.000	287.158	299.190	230.769	301.363	311.939	313.419	314.374	301.626	289.975	297.591	228.501	236.236	132.745	120.641	190.113	117.824	106.985	105.243	104.813	116.941	128.877	121.357	189.659	183.452	43.127
94.000	287.683	298.641	230.483	301.196	312.130	313.514	314.469	301.888	289.975	297.615	228.788	235.950	132.267	121.047	189.635	117.633	106.961	105.195	104.741	116.893	128.949	121.262	189.635	183.906	41.142
95.000	288.065	298.212	231.079	300.503	311.987	313.801	314.207	301.745	290.238	297.663	228.597	235.424	131.432	121.811	189.373	117.537	106.770	105.290	104.598	116.797	128.853	121.095	189.540	184.240	39.157
96.000	288.758	297.352	231.270	301.267	312.034	313.634	314.350	302.198	290.166	297.877	228.835	234.732	131.193	122.288	188.967	117.513	106.699	105.028	104.550	116.869	128.973	120.975	189.659	184.550	38.570
97.000	288.949	296.922	231.581	301.148	312.010	313.634	314.446	302.079	290.190	298.235	228.883	234.422	130.763	122.813	188.561	117.322	106.675	105.195	104.622	116.869	128.925	120.951	189.492	184.956	39.112
98.000	289.092	296.612	231.843	301.315	311.819	313.634	314.326	302.151	290.047	297.997	228.668	234.613	130.381	123.171	188.370	117.370	106.723	105.099	104.670	116.845	128.901	120.736	189.587	185.266	42.766
99.000	289.689	295.824	232.440	301.458	312.178	313.801	314.422	301.936	290.023	298.307	228.621	233.873	130.071	123.840	187.892	117.227	106.484	105.147	104.598	116.773	128.877	120.665	189.659	185.577	42.766
100.000	289.593	295.442	232.703	301.339	312.130	313.658	314.493	301.912	289.832	298.426	228.859	233.777	129.522	124.437	187.487	117.060	106.556	105.147	104.693	116.678	128.949	120.545	189.492	185.815	41.277
101.000	290.023	294.845	232.798	301.411	312.010	313.849	314.326	302.103	289.928	298.594	228.549	233.371	129.379	124.890	187.057	117.084	106.818	105.171	104.693	116.726	128.901	120.402	189.659	186.126	39.337
102.000	290.357	294.559	233.467	301.435	311.963	313.562	314.422	302.007	290.405	298.999	228.621	233.013	128.806	125.559	186.675	116.964	106.651	105.219	104.574	116.630	128.877	120.163	189.587	186.532	38.796
103.000	291.264	293.938	233.825	301.888	312.392	313.467	314.565	302.079	290.023	298.641	228.692	233.037	128.686	125.893	186.508	116.893	106.436	105.123	104.646	116.654	128.973	120.235	189.540	186.627	39.157
104.000	291.026	293.461	233.920	301.602	312.130	314.016	314.541	302.270	290.238	298.665	228.597	232.560	128.352	126.609	186.221	116.845	106.412	104.980	104.502	116.463	128.877	120.163	189.683	187.009	41.774
105.000	292.267	292.530	233.968	301.530	312.034	313.753	314.708	302.342	290.190	298.880	228.931	232.154	127.851	127.230	185.768	116.606	106.484	105.028	104.502	116.463	128.806	120.092	189.683	187.105	42.902
106.000	292.028	291.837	234.088	301.745	312.321	313.777	314.493	302.031	289.713	298.665	228.597	231.867	127.612	127.803	185.386	116.702	106.365	105.052	104.646	116.511	128.830	119.949	189.420	187.415	41.638
107.000	292.434	291.527	234.708	301.960	312.106	313.920	314.732	302.366	290.071	298.617	228.883	231.605	127.493	128.209	185.338	116.726	106.603	105.028	104.574	116.606	128.925	119.877	189.587	187.725	39.743
108.000	292.482	291.432	235.233	302.031	312.392	314.135	314.589	302.127	289.904	299.095	228.788	231.939	127.206	128.686	185.028	116.630	106.484	105.075	104.550	116.535	128.806	119.805	189.564	187.845	39.021
109.000	293.031	290.429	235.042	302.175	312.297	313.753	314.565	302.294	289.904	298.880	229.074	231.342	126.848	129.498	184.813	116.582	106.365	105.123	104.502	116.487	128.758	119.781	189.564	188.179	39.292
110.000	293.270	290.166	235.162	301.817	312.154	313.873	314.732	302.366	289.928	298.880	229.050	230.936	126.729	129.832	184.288	116.535	106.341	105.028	104.502	116.487	128.806	119.567	189.492	188.251	40.916
111.000	293.413	289.307	235.711	302.127	312.249	313.849	314.541	302.366	290.166	299.334	228.597	230.483	126.394	130.190	184.144	116.559	106.484	104.980	104.455	116.535	128.853	119.638	189.492	188.513	42.811
112.000	293.318	289.140	235.950	301.936	312.201	313.682	314.446	302.318	290.166	299.692	228.907	230.721	126.012	130.763	183.953	116.487	106.436	104.861	104.407	116.391	128.830	119.447	189.564	188.800	41.819
113.000	293.986	288.233	236.451	302.413	312.607	313.944	314.565	302.437	289.951	299.549	228.812	230.698	125.750	131.312	183.476	116.320	106.293	104.884	104.455	116.344	128.949	119.543	189.492	189.110	40.646
114.000	293.795	287.731	236.379	302.079	312.369	313.682	314.446	302.557	290.190	299.525	229.098	230.125	125.320	131.814	183.500	116.272	106.197	104.813	104.550	116.320	128.853	119.399	189.516	189.205	39.247
115.000	294.368	287.158	236.523	302.509	312.369	314.087	314.828	302.485	290.071	299.596	228.859	229.910	125.129	132.506	183.189	116.368	106.269	104.813	104.407	116.391	128.973	119.256	189.540	189.444	39.157
116.000	294.654	286.967	236.737	302.628	312.583	313.849	314.708	302.533	290.142	299.572	228.835	229.838	125.105	132.912	183.046	116.081	106.293	104.884	104.502	116.368	128.853	119.185	189.564	189.635	39.969
117.000	294.559	286.251	237.000	302.580	312.321	314.135	314.637	302.389	290.238	299.835	228.883	229.766	124.843	133.365	182.688	116.224	106.197	104.908	104.431	116.248	128.973	119.280	189.492	189.755	42.315
118.000	294.989	285.726	237.143	302.342	312.488	313.801	314.565	302.485	290.238	299.620	228.859	229.480	124.652	133.962	182.497	116.009	106.245	104.646	104.407	116.296	128.925	119.376	189.468	189.993	42.180
119.000	295.156	285.654	237.358	302.533	312.536	314.183	314.708	302.366	289.999	299.549	228.931	229.265	124.819	134.464	182.115	116.105	106.293	104.837	104.479	116.248	128.806	119.018	189.420	190.160	40.555
120.000	295.251	284.747	237.191	302.509	312.607	314.040	314.565	302.413	289.999	299.596	229.002	229.361	124.270	134.893	181.996	115.938	106.221	104.741	104.479	116.296	128.853	119.161	189.396	190.375	39.337
121.000	295.848	284.675	238.003	302.962	312.416	314.040	314.637	302.580	290.214	299.835	228.907	228.883	124.079	135.395	181.829	115.962	106.269	104.717	104.264	116.200	128.830	118.994	189.468	190.709	39.112
122.000	295.609	284.270	238.122	302.724	312.631	314.087	314.589	302.485	290.071	299.763	228.907	228.812	124.031	135.968	181.638	115.771	106.126	104.741	104.359	116.296	128.949	118.970	189.396	190.829	39.788
123.000	295.442	283.147	238.289	302.795	312.201	313.896	314.684	302.580	290.238	300.193	228.859	228.597	123.768	136.350	181.494	115.818	106.102	104.670	104.383	116.224	128.901	118.803	189.444	190.853	41.683
124.000	296.302	282.885	238.695	302.724	312.536	313.944	314.469	302.795	290.142	299.883	228.979	228.621	123.744	136.779	181.208	115.866	106.174	104.670	104.407	116.248	128.949	118.874	189.396	190.996	42.405
125.000	296.469	282.193	238.361	303.082	312.679	314.422	314.875	302.366	290.071	300.074	229.026	228.406	123.148	137.448	181.232	115.771	106.197	104.789	104.335	116.177	128.758	118.755	189.373	191.235	41.007
126.000	296.421	282.097	238.814	303.010	312.774	313.920	314.541	302.485	290.071	300.265	228.788	228.549	123.577	137.973	180.874	115.651	106.197	104.789	104.526	116.200	128.901	118.827	189.420	191.259	39.427
127.000	296.182	281.166	239.316	302.748	312.536	314.087	314.446	302.389	290.238	300.551	229.122	227.928	123.100	138.403	180.563	115.795	106.174	104.813	104.479	116.129	128.782	118.731	189.373	191.473	39.066
128.000	296.708	281.261	239.196	302.939	312.679	314.207	314.708	302.580	290.142	300.336	229.146	228.167	122.933	138.904	180.420	115.675	106.245	104.789	104.383	116.129	128.639	118.731	189.492	191.593	39.518
