-----------------------------------------------------
BloodHound 307 VOC Analyser V2017.1
RoboScientific Ltd 
Espace North
Wisbech Road
Littleport
Cambridgeshire, UK
CB6 1RA 
-----------------------------------------------------
Date = 21/04/2022
Time = 11:12:49
Data is protected by RoboScientific Limited
-----------------------------------------------------
Name of the experiment = "44b_Day 25"
-----------------------------------------------------
Repeat No. = 4/4
-----------------------------------------------------
Experimental Time (in sec) and Flow Profile :
-----------------------------------------------------
Baseline = 2.00
Absorb = 4.00
Pause = 1.00
Desorb = 5.00
Flush = 20.00
Wait = 5.00
Higher Flow (V) = 4.00
Medium Flow (V) = 3.00
Low Flow (V) = 1.00
-----------------------------------------------------
Total Profile Time = 37 in sec
-----------------------------------------------------
Acquired data point per second = 4
--------------------------------------------------
Total data point stored  = 128
-----------------------------------------------------
Acquired sensor responses from 24 sensors
-----------------------------------------------------

Data Points	 Sen-1	 Sen-2	 Sen-3	 Sen-4	 Sen-5	 Sen-6	 Sen-7	 Sen-8	 Sen-9	 Sen-10	 Sen-11	 Sen-12	 Sen-13	 Sen-14	 Sen-15	 Sen-16	 Sen-17	 Sen-18	 Sen-19	 Sen-20	 Sen-21	 Sen-22	 Sen-23	 Sen-24	Humidity (%r.h.)
0.000	303.177	251.420	252.804	305.589	313.992	314.923	315.329	302.915	290.095	303.870	230.029	218.689	116.177	167.958	166.359	113.169	104.789	103.762	103.858	116.009	129.164	115.031	188.561	201.071	40.149
1.000	303.631	250.680	252.852	305.994	314.302	315.329	315.257	302.915	289.904	304.132	229.838	218.880	116.129	168.579	166.120	113.169	104.861	103.786	103.858	115.866	128.925	114.792	188.442	201.094	40.465
2.000	304.132	249.940	253.162	306.018	314.374	315.281	315.305	302.986	290.166	304.180	229.957	218.928	116.320	169.200	165.881	113.001	104.884	103.953	103.953	115.962	129.092	114.816	188.537	200.999	40.330
3.000	303.416	249.868	253.640	305.732	313.944	315.162	315.400	303.058	289.784	304.180	229.743	218.689	116.033	169.701	165.499	112.930	104.813	103.906	103.786	115.818	129.235	114.744	188.418	201.047	40.239
4.000	303.965	249.295	253.902	305.421	313.968	315.281	315.687	303.034	289.689	303.965	229.886	218.618	116.033	169.868	165.451	112.978	104.789	103.882	103.953	115.771	129.044	114.816	188.346	200.999	39.879
5.000	303.368	249.510	253.497	305.780	314.040	315.114	315.448	303.130	289.904	304.037	230.148	218.761	115.795	170.011	165.380	112.978	104.670	103.786	103.929	115.914	129.140	114.911	188.489	200.999	40.149
6.000	303.440	249.271	254.284	305.493	314.159	315.305	315.353	303.130	289.856	304.061	229.886	219.023	115.986	170.011	165.427	113.073	104.789	103.858	103.929	115.795	129.068	114.887	188.394	201.047	40.194
7.000	303.607	249.032	253.879	305.780	314.087	314.995	315.400	303.273	289.832	304.156	229.957	218.785	115.842	170.274	165.117	113.073	104.693	103.834	103.810	115.747	129.188	114.887	188.346	200.999	40.375
8.000	303.607	248.889	254.141	305.541	313.992	314.947	315.400	302.962	289.951	304.323	229.910	218.737	115.699	170.465	165.093	112.978	105.075	103.953	103.906	115.866	129.020	114.673	188.442	201.118	40.285
9.000	304.132	248.006	254.308	305.756	314.255	315.186	315.353	303.082	290.047	304.419	229.743	218.665	115.580	171.109	164.831	112.858	104.693	103.762	103.906	115.747	129.044	114.577	188.298	200.975	40.194
10.000	301.578	274.625	253.855	305.803	314.278	315.281	315.568	302.939	289.951	303.225	229.671	247.337	117.322	143.512	164.878	113.049	104.717	103.834	103.953	115.890	128.973	115.460	188.847	170.417	40.194
11.000	265.744	298.952	250.990	304.681	313.443	314.660	315.281	301.697	290.262	289.331	227.976	279.375	153.706	120.689	168.006	114.100	105.052	104.216	104.144	116.797	128.519	128.424	190.184	140.814	36.720
12.000	235.639	311.724	242.419	302.103	313.109	314.517	315.042	299.668	290.882	250.536	227.021	297.352	183.452	107.749	177.197	116.272	105.505	104.550	104.097	118.827	128.280	169.367	191.450	123.124	36.540
13.000	261.685	319.316	232.082	299.429	313.228	313.491	314.708	297.066	290.620	221.482	225.899	307.546	157.239	100.611	189.301	119.304	105.672	105.386	104.455	121.667	128.113	197.036	192.381	112.954	45.518
14.000	281.047	323.016	234.899	295.323	312.416	312.774	314.040	294.034	290.739	234.350	225.254	314.493	137.114	95.884	183.810	123.434	106.484	106.293	104.884	124.556	128.257	182.497	192.954	106.436	51.790
15.000	295.968	326.812	245.093	290.477	311.438	311.628	313.801	291.145	289.880	249.343	224.896	317.979	122.073	93.163	170.727	127.875	106.938	106.938	105.243	127.325	128.925	168.030	193.431	101.853	46.060
16.000	306.663	328.173	255.598	284.747	310.984	310.602	313.180	287.421	289.092	261.757	224.180	321.751	111.975	90.727	159.793	133.389	107.701	108.346	106.030	131.121	129.593	156.308	194.123	98.797	34.554
17.000	314.326	329.319	263.905	278.683	309.910	308.931	312.512	283.911	288.567	271.879	224.204	323.971	104.765	89.725	150.363	139.811	108.728	109.611	106.842	135.180	130.453	147.379	194.529	96.576	28.779
18.000	319.793	331.229	270.495	272.763	308.883	307.475	311.199	279.137	287.660	278.898	223.894	326.167	99.179	88.006	142.485	145.875	109.707	111.187	107.630	139.740	131.265	139.429	194.816	94.643	35.412
19.000	323.517	331.443	275.985	266.150	307.952	305.517	310.244	274.362	286.299	285.368	223.416	326.669	95.860	87.361	136.039	152.584	110.853	113.240	108.824	144.753	132.625	133.819	195.078	93.449	48.451
20.000	325.308	332.255	280.784	259.966	306.185	303.010	308.525	268.967	285.272	289.665	223.153	328.244	93.377	87.051	130.477	159.173	112.476	115.413	110.208	149.814	133.485	128.519	195.007	91.945	53.730
21.000	327.791	333.377	284.651	253.139	305.493	300.575	306.758	263.452	284.246	293.962	223.010	328.722	91.563	87.027	125.893	165.547	113.550	117.848	112.023	155.305	134.511	124.174	195.436	91.826	46.105
22.000	329.820	333.759	287.851	246.430	303.535	297.854	304.705	257.507	283.338	297.042	222.819	329.653	89.820	85.642	122.933	172.064	115.293	120.450	113.980	160.915	135.490	120.450	195.317	89.987	33.697
23.000	330.417	333.807	290.620	240.963	301.912	294.822	302.294	252.160	282.049	300.718	223.130	330.107	88.269	86.263	119.686	178.510	116.988	123.577	116.415	167.003	136.827	117.800	195.532	90.799	28.057
24.000	331.563	333.759	292.840	235.233	300.241	292.124	299.859	246.311	280.903	303.488	222.700	330.226	88.101	85.356	117.633	184.622	118.946	126.609	119.280	173.043	138.355	114.887	195.842	89.773	35.141
25.000	332.518	333.879	294.416	230.316	297.949	289.092	297.042	240.915	279.996	305.541	223.058	331.038	87.099	85.619	115.532	190.017	120.856	129.522	122.121	178.534	139.382	113.025	195.675	90.035	47.684
26.000	332.661	334.595	295.729	228.286	296.540	287.803	294.989	239.674	279.614	305.063	222.939	330.751	87.170	86.215	114.577	191.402	122.264	130.883	124.604	180.062	139.835	113.192	195.842	88.818	54.226
27.000	331.754	334.523	296.111	228.334	295.872	287.994	294.296	240.199	279.304	304.610	223.225	330.823	87.409	86.001	114.792	191.712	122.742	130.596	125.296	179.584	139.644	114.004	195.627	89.152	47.098
28.000	332.303	333.974	296.015	228.740	295.824	288.280	293.628	240.915	279.686	304.562	222.748	330.942	87.863	85.786	114.410	191.426	122.957	130.166	125.535	179.107	139.501	114.434	195.914	88.889	33.923
29.000	332.589	334.356	296.254	228.788	295.920	288.805	293.437	241.082	279.495	304.084	223.034	330.417	87.314	85.738	114.410	191.330	123.004	130.214	125.869	178.439	139.382	114.911	195.818	88.770	27.877
30.000	333.807	334.117	296.564	227.928	295.538	287.660	292.386	239.793	279.232	305.803	223.034	330.345	86.621	85.189	114.553	191.688	123.506	130.906	126.848	179.728	139.644	112.978	195.890	89.271	36.224
31.000	333.043	335.215	296.946	226.018	293.532	284.556	289.760	235.615	277.824	307.164	222.628	331.181	85.666	85.857	113.192	194.076	125.272	133.771	129.331	184.073	141.005	110.948	195.818	89.749	50.166
32.000	333.353	335.574	297.758	225.684	292.172	281.882	286.848	231.247	276.869	309.122	222.700	332.207	86.001	85.571	112.142	193.646	126.967	136.636	132.291	188.298	142.318	109.898	195.938	89.176	54.001
33.000	332.685	335.192	299.167	225.923	289.235	279.423	283.816	230.912	276.726	307.475	222.748	331.324	86.979	86.454	111.211	192.070	128.806	138.880	135.108	189.014	142.581	110.686	195.150	89.820	44.751
34.000	331.658	334.857	299.787	226.902	287.994	279.184	282.837	235.162	277.466	304.443	223.106	330.107	88.125	86.024	110.447	191.521	130.214	139.525	136.183	183.977	141.339	115.150	195.341	89.510	31.802
35.000	329.963	334.284	299.477	225.851	287.588	279.734	284.007	241.918	279.423	297.472	223.130	329.175	89.796	86.048	111.044	192.357	130.668	138.451	135.084	177.149	139.549	120.832	195.126	91.730	28.463
36.000	328.101	333.377	299.358	224.801	288.662	281.882	285.750	248.507	280.951	289.713	223.822	326.358	91.802	86.454	110.805	193.288	129.641	136.708	133.318	169.868	137.734	128.973	194.863	92.828	37.984
37.000	325.380	332.852	299.310	224.467	289.975	284.079	288.352	255.526	282.384	280.307	224.156	323.828	94.332	86.335	111.211	194.720	128.710	134.798	130.930	163.351	136.254	138.474	194.386	95.168	50.256
38.000	323.064	332.876	298.761	225.302	291.288	286.036	290.668	261.828	284.007	269.158	224.467	320.868	97.030	86.955	112.094	194.577	127.230	132.697	128.471	157.024	134.941	149.838	193.646	98.152	52.512
39.000	319.244	331.348	298.450	227.737	292.888	288.233	293.246	267.343	285.511	257.794	225.398	318.050	100.468	87.528	112.428	191.521	125.678	130.334	125.535	151.629	133.604	162.491	192.977	101.471	42.721
40.000	314.326	330.966	296.875	232.082	294.487	290.238	295.968	271.808	286.179	244.162	225.541	314.708	104.908	88.746	113.550	187.033	123.983	128.161	123.004	146.687	132.578	175.598	192.786	104.383	31.892
41.000	310.292	330.680	296.159	237.048	296.159	292.434	298.188	275.890	286.967	230.888	225.994	310.888	109.874	88.555	114.649	181.757	122.264	126.299	120.545	142.748	132.076	188.561	192.333	109.086	30.449
42.000	303.607	329.510	295.013	242.443	297.877	294.535	300.480	279.734	287.421	218.450	226.782	306.615	115.890	89.868	115.795	176.147	120.713	124.174	118.468	139.047	131.384	200.020	191.855	112.739	38.119
43.000	296.063	328.316	293.556	247.743	298.999	296.302	302.509	282.121	287.994	226.281	226.782	301.888	123.434	90.346	117.561	171.229	119.328	122.288	116.368	136.230	130.954	193.622	191.497	117.394	48.677
44.000	287.898	327.815	291.909	253.067	301.005	298.164	304.299	284.842	288.352	236.356	227.188	298.116	132.076	91.826	119.376	166.000	117.943	120.593	114.768	133.843	130.692	183.333	191.259	121.978	49.489
45.000	277.728	327.098	289.713	257.937	302.151	300.026	306.042	287.182	288.233	245.427	227.379	293.341	141.673	92.422	122.169	160.748	116.606	118.588	113.145	131.909	130.405	174.094	191.044	126.084	41.097
46.000	267.558	325.594	287.779	262.115	303.297	301.817	307.475	288.829	288.734	252.780	227.498	289.737	152.225	93.903	124.294	156.308	115.460	116.893	111.664	130.023	130.166	165.833	190.853	130.214	33.381
47.000	256.958	324.425	285.129	266.746	304.347	303.321	308.167	290.214	288.734	259.370	227.522	285.630	161.823	94.929	127.134	151.700	114.386	115.174	110.853	128.424	130.071	158.958	190.733	133.867	33.607
48.000	246.908	323.947	281.763	270.375	305.183	304.992	309.265	291.742	289.092	265.577	227.761	281.596	171.706	95.645	130.357	148.143	113.360	113.598	109.564	127.158	130.071	153.443	190.614	137.591	40.826
49.000	239.316	322.873	278.850	273.980	306.066	306.424	310.053	292.697	288.949	270.614	227.928	277.943	180.444	96.887	133.938	144.681	112.596	112.261	108.943	125.893	129.880	148.668	190.208	141.435	46.917
50.000	231.461	320.915	275.317	277.657	306.949	307.522	310.817	293.986	289.020	275.126	227.928	274.529	187.797	98.295	137.949	140.933	111.617	110.948	108.251	124.962	129.904	143.846	190.208	144.992	46.060
51.000	226.090	320.533	270.853	280.593	308.215	309.193	311.461	295.013	289.092	279.208	228.000	270.662	194.314	99.059	142.581	137.758	110.733	109.659	107.558	123.912	129.808	140.193	190.065	148.955	40.375
52.000	221.244	318.838	266.173	283.338	308.334	309.623	311.987	295.538	289.187	281.763	228.239	267.439	198.755	100.229	147.761	134.846	110.017	108.895	107.129	123.195	129.593	137.018	189.778	152.369	35.186
53.000	220.217	317.812	261.781	285.917	309.289	310.960	312.464	296.517	289.020	284.723	228.597	263.738	199.137	100.945	152.679	132.625	109.468	108.060	106.723	122.360	129.617	134.201	189.778	155.448	35.998
54.000	225.087	317.143	257.269	287.874	309.528	311.247	313.204	297.090	289.235	286.657	228.525	260.420	194.267	102.330	157.669	130.357	109.038	107.415	106.317	121.691	129.617	132.243	189.683	158.862	40.691
55.000	231.008	315.854	252.040	289.975	310.292	311.581	312.918	297.543	289.402	288.328	228.382	257.865	189.014	103.548	163.112	128.925	108.513	106.938	106.006	121.309	129.689	130.739	189.516	161.297	45.112
56.000	236.594	315.066	247.815	291.193	310.841	312.321	313.538	297.806	289.307	289.307	228.501	256.552	183.142	104.359	167.815	127.373	108.060	106.532	105.815	120.736	129.641	129.426	189.564	163.518	44.120
57.000	241.775	314.255	243.971	292.434	310.984	312.870	313.085	298.140	289.235	290.715	228.764	254.046	178.080	104.980	172.375	126.251	107.725	106.030	105.553	120.474	129.689	128.400	189.564	165.284	40.239
58.000	246.167	313.419	240.390	293.341	310.793	312.774	313.634	298.641	289.450	291.527	228.644	252.088	173.162	106.221	176.648	125.034	107.558	105.935	105.434	120.116	129.665	127.373	189.444	167.194	36.765
59.000	250.680	312.703	237.000	294.583	311.628	313.037	313.801	298.952	289.283	292.506	228.764	250.345	168.412	106.938	179.895	124.150	107.415	105.648	105.266	119.805	129.546	126.394	189.492	169.056	37.668
60.000	254.834	311.676	234.231	295.227	311.819	313.371	314.087	299.310	289.402	293.127	228.883	248.364	164.807	107.606	183.333	123.267	107.272	105.457	105.147	119.567	129.546	125.845	189.468	170.895	41.458
61.000	258.152	310.912	231.843	296.063	311.676	313.729	313.801	299.453	289.426	293.700	229.026	246.693	161.321	108.370	186.030	122.479	106.961	105.457	105.195	119.352	129.570	124.914	189.396	172.470	44.345
62.000	261.494	310.053	229.910	296.636	312.010	313.944	314.469	299.525	289.522	294.702	228.644	245.547	158.480	109.134	188.585	122.002	106.914	105.195	104.980	119.232	129.593	124.413	189.277	173.879	42.902
63.000	264.311	309.671	228.979	297.591	312.225	313.944	314.302	299.620	289.283	295.156	229.074	243.947	155.353	110.113	190.709	121.285	106.627	105.099	104.956	118.874	129.379	123.768	189.229	175.526	39.743
64.000	266.364	308.859	227.642	297.495	312.082	313.586	314.493	300.193	289.355	295.562	229.265	242.992	153.228	110.853	192.094	120.736	106.603	104.884	104.837	118.898	129.450	123.410	189.134	176.791	37.848
65.000	268.370	307.666	227.021	298.068	312.058	313.968	314.183	300.312	289.784	296.063	229.313	241.441	150.984	111.474	193.192	120.307	106.579	104.956	104.789	118.588	129.450	122.885	189.182	177.985	38.751
66.000	270.662	307.236	226.830	298.880	312.440	313.729	314.183	300.408	289.474	296.397	229.313	239.913	149.003	112.405	193.598	119.805	106.341	104.813	104.717	118.349	129.379	122.670	189.014	179.107	41.864
67.000	272.667	306.448	227.260	298.999	312.703	314.493	314.469	300.694	289.450	296.803	229.193	239.149	147.188	113.025	193.861	119.471	106.317	104.693	104.574	118.182	129.426	122.240	189.158	180.205	43.804
68.000	274.505	305.565	227.570	299.525	312.607	314.016	314.517	300.742	289.402	296.970	229.170	238.027	145.278	113.646	193.670	119.113	106.293	104.717	104.550	118.086	129.474	121.644	189.014	181.614	42.135
69.000	276.487	304.753	227.928	299.644	312.583	314.183	314.517	300.694	289.402	297.448	229.623	236.165	143.010	114.983	193.240	118.659	106.006	104.479	104.455	118.015	129.307	121.238	188.967	182.831	39.518
70.000	278.993	303.153	228.692	300.503	312.679	314.135	314.660	300.933	289.546	298.379	229.647	234.111	140.527	116.320	192.214	118.325	106.078	104.550	104.526	117.872	129.235	120.617	188.967	184.932	38.615
71.000	281.070	302.007	229.599	300.575	313.061	314.398	314.923	300.862	289.498	298.904	229.217	232.297	139.143	117.490	191.068	117.919	105.887	104.383	104.288	117.752	129.450	120.211	188.895	187.081	39.247
72.000	281.452	300.742	230.172	300.838	312.751	314.637	314.780	301.100	289.355	298.976	229.456	231.605	138.212	118.659	189.898	117.442	105.863	104.479	104.383	117.609	129.402	119.901	188.847	187.678	41.909
73.000	282.431	300.074	231.796	301.196	313.156	314.589	314.995	301.339	289.808	299.262	229.408	231.032	137.806	119.328	188.823	117.490	106.006	104.407	104.311	117.466	129.235	119.734	188.919	188.083	42.631
74.000	282.384	299.644	232.512	301.482	312.989	314.517	314.804	301.291	289.522	299.286	229.146	230.960	137.114	120.163	188.155	117.060	105.720	104.383	104.359	117.513	129.426	119.519	188.847	188.442	41.007
75.000	283.338	298.522	233.109	301.458	313.133	314.302	314.565	301.220	289.593	299.095	229.480	230.769	136.374	121.023	187.248	117.036	105.648	104.383	104.479	117.466	129.355	119.447	188.847	188.943	39.112
76.000	284.628	298.140	233.777	301.626	313.324	314.780	314.971	301.458	289.474	299.477	229.361	230.363	135.705	121.644	186.436	116.797	105.696	104.359	104.407	117.418	129.379	119.352	188.895	189.396	39.066
77.000	284.651	297.376	234.565	301.697	313.061	314.398	314.589	301.554	289.808	299.740	229.217	229.122	134.798	122.551	185.577	116.773	105.744	104.383	104.288	117.275	129.164	119.018	188.752	190.137	39.743
78.000	286.179	295.824	234.971	302.366	313.156	314.517	315.019	301.626	289.784	300.098	229.265	228.501	133.915	123.553	184.789	116.463	105.672	104.216	104.216	117.179	129.307	118.994	188.919	190.709	41.864
79.000	286.179	295.514	235.830	302.151	313.013	314.708	314.756	301.506	289.928	300.289	229.432	228.167	133.413	124.270	184.144	116.368	105.553	104.311	104.359	117.370	129.283	118.850	188.871	190.996	42.180
80.000	286.824	294.654	236.308	302.389	313.037	314.541	315.042	301.721	289.808	299.978	229.289	227.976	133.031	125.081	183.404	116.105	105.386	104.335	104.359	117.227	129.307	118.755	188.871	191.330	40.555
81.000	286.657	293.891	236.857	302.724	313.204	314.446	314.780	301.626	289.641	299.859	229.193	227.857	132.434	125.702	183.070	116.033	105.457	104.097	104.168	117.084	129.259	118.707	188.752	191.473	39.337
82.000	287.540	293.270	237.645	302.509	313.252	314.660	314.947	301.984	289.928	300.384	229.599	227.331	131.790	126.442	182.330	115.914	105.386	104.168	104.264	117.132	129.259	118.636	188.847	191.760	39.247
83.000	288.304	292.482	237.931	302.485	313.347	314.613	314.804	301.769	289.784	300.312	229.456	227.188	131.551	127.182	181.757	115.890	105.386	104.120	104.216	117.060	129.211	118.540	188.680	192.070	40.059
84.000	288.901	291.742	238.456	302.724	313.395	314.971	315.186	301.912	289.593	300.121	229.528	226.687	131.050	127.946	181.351	115.818	105.505	104.192	104.168	116.869	129.259	118.421	188.847	192.381	41.728
85.000	289.426	291.002	239.149	302.533	313.156	314.541	314.899	301.888	290.047	300.551	229.361	226.329	130.835	128.448	180.921	115.508	105.338	104.240	104.288	116.964	129.188	118.301	188.847	192.858	41.954
86.000	289.689	290.286	239.531	303.082	313.705	314.947	314.995	302.007	289.569	300.575	229.504	226.400	130.190	129.665	180.444	115.508	105.434	104.216	104.168	116.964	129.283	118.086	188.895	193.192	40.285
87.000	290.095	289.283	239.841	303.153	313.562	314.851	314.995	301.649	289.617	300.551	229.623	225.827	129.784	130.119	179.847	115.556	105.338	104.120	104.216	116.821	129.211	118.182	188.752	193.383	39.202
88.000	290.477	288.949	240.199	302.939	313.467	314.899	315.066	301.912	289.498	301.029	229.504	225.636	129.379	130.739	179.393	115.365	105.338	104.097	104.192	116.845	129.235	117.943	188.632	193.789	39.247
89.000	290.668	287.994	240.700	303.225	313.777	314.804	314.923	302.198	290.047	301.053	229.623	225.039	129.116	131.360	179.035	115.413	105.290	104.144	104.192	116.773	129.259	117.991	188.871	194.004	40.239
90.000	291.097	287.325	241.202	303.440	313.682	314.684	314.851	301.888	289.617	301.005	229.623	224.920	128.639	132.148	178.701	115.174	105.410	104.097	104.001	116.773	129.259	117.824	188.752	194.243	41.728
91.000	291.479	286.776	241.464	303.392	313.538	314.756	314.899	301.984	289.689	300.957	229.528	224.705	128.233	132.745	178.200	115.102	105.386	104.120	104.168	116.726	129.140	117.824	188.728	194.505	41.593
92.000	292.196	285.941	241.512	303.344	313.849	314.613	314.995	302.294	289.928	300.981	229.408	224.419	127.803	133.437	177.889	114.959	105.266	104.120	104.240	116.821	129.235	117.681	188.871	194.816	40.149
93.000	292.291	285.344	242.228	303.535	313.634	314.637	314.851	301.936	289.641	301.148	229.337	224.323	127.325	134.106	177.388	115.126	105.219	103.929	103.953	116.726	129.140	117.633	188.680	195.078	39.202
94.000	292.434	284.699	242.395	303.273	313.514	315.114	315.329	302.031	289.856	301.649	229.647	224.013	127.111	134.559	177.030	114.935	105.219	104.097	104.097	116.726	129.283	117.609	188.609	195.269	39.382
95.000	292.721	284.222	242.992	303.774	313.610	314.804	314.995	302.342	289.928	301.411	229.862	223.798	126.776	135.156	176.648	115.031	105.219	104.025	104.049	116.606	129.235	117.466	188.656	195.413	40.646
96.000	293.246	283.601	243.327	303.750	313.324	314.899	314.899	301.960	289.928	301.673	229.504	223.655	126.562	135.824	176.385	114.983	105.243	104.025	104.073	116.654	129.283	117.490	188.656	195.651	41.728
97.000	292.816	283.124	243.279	303.631	313.347	314.541	315.019	302.342	290.023	301.960	229.408	223.440	126.323	136.445	176.003	114.887	105.195	104.120	104.144	116.630	129.307	117.251	188.680	195.962	41.052
98.000	293.914	282.694	243.685	303.965	313.610	314.971	314.828	302.127	289.737	301.721	229.623	223.583	125.917	136.946	175.645	114.720	105.195	104.025	103.953	116.606	129.355	117.322	188.728	196.176	39.788
99.000	293.843	281.882	243.995	303.655	313.491	314.660	314.828	302.151	289.498	301.745	229.384	223.249	125.583	137.496	175.335	114.720	105.195	104.216	104.073	116.678	129.164	117.036	188.656	196.511	39.292
100.000	294.607	281.381	244.258	303.989	313.682	314.684	315.329	302.294	289.617	301.602	229.862	222.676	125.416	138.140	175.001	114.625	105.195	103.977	104.001	116.511	129.188	117.203	188.680	196.558	39.563
101.000	294.487	280.426	244.544	303.870	313.610	314.780	315.114	302.509	289.999	301.888	229.313	222.748	125.105	138.570	174.762	114.434	105.219	104.144	104.168	116.630	129.283	117.060	188.632	196.726	40.871
102.000	295.084	280.354	244.878	304.228	313.682	314.971	315.353	302.413	289.641	302.007	229.456	222.604	125.081	139.238	174.523	114.601	105.171	104.025	104.073	116.511	129.259	117.060	188.656	196.726	41.458
103.000	295.371	279.805	245.571	303.798	313.634	314.851	315.281	302.318	289.450	301.745	229.528	222.199	124.819	139.764	174.141	114.458	105.123	103.977	104.120	116.511	129.355	116.964	188.418	197.012	40.736
104.000	295.251	279.304	245.380	304.156	313.658	314.732	315.019	302.246	289.713	302.198	229.719	222.270	124.485	140.432	174.094	114.291	105.171	104.168	104.001	116.559	129.140	116.773	188.632	197.179	39.653
105.000	295.824	278.373	245.642	304.299	313.729	315.066	315.424	302.318	289.808	302.007	229.671	222.222	124.222	141.005	173.735	114.458	105.099	104.001	103.882	116.344	129.307	116.773	188.585	197.322	39.247
106.000	296.111	277.609	246.024	304.323	313.610	314.780	315.257	302.604	289.904	302.103	229.575	221.721	123.649	141.530	173.521	114.314	105.314	104.097	104.097	116.415	129.188	116.678	188.561	197.872	39.563
107.000	296.636	277.060	246.549	304.395	314.064	314.947	315.090	302.413	289.641	301.864	229.456	221.315	123.386	142.700	172.900	114.314	105.171	103.929	104.120	116.391	129.188	116.630	188.442	198.086	41.007
108.000	296.588	275.938	246.621	304.252	313.705	315.257	315.448	302.557	289.832	302.700	229.981	221.482	123.076	142.986	172.566	114.314	105.147	103.977	103.906	116.272	129.235	116.678	188.632	198.277	41.052
109.000	296.349	275.317	246.836	304.944	313.801	314.971	314.923	302.222	289.832	302.628	229.671	221.077	122.909	143.631	172.422	114.219	105.052	103.929	104.001	116.296	129.188	116.487	188.656	198.277	40.600
110.000	296.684	275.341	247.290	304.538	313.753	314.780	315.472	302.580	289.928	302.557	229.862	220.909	122.933	144.085	172.208	114.100	105.004	103.906	104.073	116.487	129.211	116.606	188.585	198.182	39.563
111.000	296.827	275.030	247.552	304.514	313.634	314.756	315.066	302.246	289.737	302.628	230.005	221.100	122.742	144.705	172.064	114.147	105.075	103.929	104.073	116.272	129.164	116.511	188.680	198.373	39.202
112.000	296.517	274.529	247.695	304.681	313.682	314.971	314.971	302.294	289.808	302.604	229.599	220.838	122.766	145.016	171.730	114.004	105.028	104.120	104.097	116.272	129.164	116.344	188.656	198.492	39.833
113.000	297.400	274.338	247.337	304.371	313.610	315.162	315.591	302.389	289.928	302.557	229.862	220.695	122.503	145.326	171.706	113.909	105.123	104.025	103.906	116.248	129.140	116.272	188.561	198.492	40.871
114.000	297.639	273.622	247.886	304.586	313.992	315.090	315.424	302.771	289.641	302.389	229.552	220.742	122.455	145.875	171.253	113.932	105.028	103.834	104.120	116.415	129.355	116.368	188.656	198.588	41.052
115.000	297.663	272.977	248.268	304.777	313.920	314.947	315.138	302.485	289.784	302.867	229.599	220.671	122.097	146.400	171.253	113.909	105.075	104.001	104.073	116.272	129.211	116.272	188.632	198.659	40.600
116.000	297.710	272.595	248.173	304.466	313.873	315.281	315.424	302.580	289.617	302.628	229.814	220.695	121.978	146.806	170.918	114.004	105.099	103.810	103.929	116.129	129.044	116.200	188.465	198.731	39.698
117.000	297.782	271.831	248.555	304.681	313.873	314.804	315.210	302.342	289.522	302.604	229.695	220.408	121.930	147.379	170.823	113.956	105.099	103.882	103.977	116.224	129.164	116.105	188.561	198.779	39.202
118.000	298.188	271.831	248.626	304.872	313.968	315.210	315.281	302.533	289.617	302.604	229.361	220.623	121.691	147.952	170.632	113.670	104.693	103.858	103.929	116.272	129.355	116.296	188.561	198.898	40.059
119.000	298.403	270.972	248.817	304.514	313.825	314.923	315.210	302.628	289.880	302.628	229.790	220.432	121.333	148.262	170.441	113.789	105.004	104.025	103.977	116.081	129.092	116.153	188.537	198.922	40.781
120.000	298.188	270.614	249.104	305.087	313.825	314.875	315.162	302.557	289.999	303.058	229.766	220.169	121.262	148.716	170.345	113.861	105.099	104.025	104.097	116.105	129.188	116.057	188.585	199.161	41.232
121.000	298.546	270.375	249.199	304.681	314.159	315.066	315.305	302.461	289.856	303.034	229.766	220.169	121.047	149.050	170.274	113.765	104.956	103.858	103.953	116.105	129.283	116.129	188.513	199.208	40.285
122.000	298.546	269.611	249.438	304.801	313.896	314.923	315.424	302.891	290.119	302.795	229.504	220.313	121.262	149.504	170.035	113.646	105.052	103.977	104.073	116.129	129.116	116.009	188.609	199.280	39.788
123.000	298.856	269.659	249.438	304.777	313.873	314.971	315.210	302.795	289.928	302.724	229.766	219.907	120.832	150.053	169.796	113.646	104.932	104.049	104.049	116.200	129.188	115.890	188.704	199.232	39.337
124.000	299.023	269.277	249.343	304.896	313.992	315.114	315.257	302.771	290.023	302.891	229.862	220.122	120.450	150.459	169.605	113.789	105.099	103.977	104.120	116.057	129.092	115.771	188.632	199.256	39.969
125.000	298.999	268.489	249.605	305.016	313.801	315.066	315.162	302.557	289.665	303.034	229.575	220.241	120.617	150.936	169.438	113.694	104.884	103.858	103.858	116.129	129.235	115.890	188.418	199.328	40.600
126.000	299.262	268.418	249.940	305.207	314.064	314.828	314.971	302.604	289.975	302.939	229.480	220.217	120.378	151.294	169.414	113.527	104.956	104.025	104.144	116.153	129.140	115.795	188.418	199.447	40.871
127.000	298.665	267.534	250.083	305.493	313.801	314.971	315.042	302.509	289.713	303.058	229.695	219.907	120.163	151.700	169.176	113.527	104.932	104.001	104.097	116.129	129.259	115.842	188.370	199.590	40.239
128.000	299.477	267.296	249.868	304.944	313.968	314.947	315.305	302.748	289.832	303.130	229.504	219.835	120.020	152.225	169.032	113.550	105.075	104.001	104.025	116.105	129.116	115.866	188.418	199.543	39.698
