-----------------------------------------------------
BloodHound 307 VOC Analyser V2017.1
RoboScientific Ltd 
Espace North
Wisbech Road
Littleport
Cambridgeshire, UK
CB6 1RA 
-----------------------------------------------------
Date = 03/03/2021
Time = 12:20:17
Data is protected by RoboScientific Limited
-----------------------------------------------------
Name of the experiment = "5892P"
-----------------------------------------------------
Repeat No. = 2/4
-----------------------------------------------------
Experimental Time (in sec) and Flow Profile :
-----------------------------------------------------
Baseline = 2.00
Absorb = 4.00
Pause = 1.00
Desorb = 5.00
Flush = 18.00
Wait = 5.00
Higher Flow (V) = 4.00
Medium Flow (V) = 3.00
Low Flow (V) = 1.00
-----------------------------------------------------
Total Profile Time = 35 in sec
-----------------------------------------------------
Acquired data point per second = 4
--------------------------------------------------
Total data point stored  = 120
-----------------------------------------------------
Acquired sensor responses from 24 sensors
-----------------------------------------------------

Data Points	 Sen-1	 Sen-2	 Sen-3	 Sen-4	 Sen-5	 Sen-6	 Sen-7	 Sen-8	 Sen-9	 Sen-10	 Sen-11	 Sen-12	 Sen-13	 Sen-14	 Sen-15	 Sen-16	 Sen-17	 Sen-18	 Sen-19	 Sen-20	 Sen-21	 Sen-22	 Sen-23	 Sen-24	Humidity (%r.h.)
0.000	313.968	303.416	289.331	279.925	225.732	299.119	307.236	305.207	300.098	239.507	297.090	302.986	106.102	116.415	130.166	138.928	193.383	119.877	112.118	113.837	118.994	179.274	121.262	116.057	50.888
1.000	313.514	303.225	289.450	279.972	225.302	299.238	307.355	305.016	299.954	239.817	297.925	303.392	106.102	116.463	130.310	139.095	193.407	119.734	112.118	113.956	119.018	179.393	121.190	115.914	46.105
2.000	313.873	303.177	289.283	280.020	225.541	298.928	307.546	305.565	300.265	239.913	297.686	303.106	105.911	116.535	130.310	139.191	193.527	119.877	112.094	113.861	118.946	179.441	121.285	115.962	32.163
3.000	313.514	303.344	289.331	279.734	225.589	299.596	307.284	305.374	300.241	239.746	297.758	303.058	105.839	116.463	130.405	138.976	193.479	119.710	111.927	113.813	118.850	179.322	121.142	115.962	29.321
4.000	313.682	303.535	289.474	279.948	225.612	299.405	307.284	305.039	300.002	239.602	297.281	303.368	105.815	116.415	130.357	139.000	193.503	119.829	111.999	113.885	118.946	179.346	121.190	116.009	41.683
5.000	313.705	303.249	289.307	279.710	225.469	299.262	307.355	304.896	299.859	239.793	297.639	303.535	105.863	116.320	130.238	138.976	193.622	119.925	112.094	113.741	118.850	179.346	121.166	116.033	51.429
6.000	313.610	303.249	289.378	280.092	225.493	299.095	307.284	305.350	300.074	239.411	297.543	303.368	106.054	116.511	130.238	138.928	193.503	119.734	112.046	113.765	118.946	179.370	121.166	115.914	43.578
7.000	313.825	303.130	289.426	279.805	225.899	299.477	307.403	305.016	300.121	239.817	297.567	303.655	105.792	116.415	130.381	139.023	193.527	119.781	112.023	113.861	119.018	179.393	121.166	116.057	29.952
8.000	314.040	303.321	289.092	280.068	225.589	299.620	307.618	305.039	299.692	239.889	297.448	303.535	106.078	116.439	130.334	139.071	193.550	119.805	112.094	113.932	118.874	179.393	121.071	115.962	31.171
9.000	313.682	303.297	289.068	279.686	225.421	299.525	307.594	305.326	299.883	239.889	297.519	303.344	106.102	116.463	130.477	138.928	193.503	119.662	111.951	113.861	118.803	179.441	121.166	116.081	45.067
10.000	313.705	303.010	289.355	280.259	226.114	299.692	307.403	305.230	299.787	240.080	297.639	303.703	106.460	115.962	130.381	139.047	193.359	119.781	111.999	113.837	118.922	178.940	120.927	115.389	51.158
11.000	311.127	303.464	288.710	279.686	225.971	299.572	307.188	305.589	299.190	241.488	298.594	304.801	107.678	115.890	130.166	138.546	192.619	119.567	111.999	113.288	119.590	177.698	120.235	114.768	40.961
12.000	306.949	302.676	290.214	281.070	227.355	299.978	307.116	305.541	296.493	242.300	298.259	303.726	112.978	116.654	130.119	138.188	191.569	119.304	112.118	113.312	122.002	176.791	120.259	115.317	28.509
13.000	298.235	301.435	289.665	281.476	228.286	299.549	306.806	305.445	292.196	242.682	298.212	302.676	120.354	118.039	129.880	137.901	190.662	119.352	112.094	113.288	125.774	176.457	120.689	116.344	33.652
14.000	288.352	299.572	290.142	281.667	229.217	299.143	306.758	305.684	286.347	242.300	296.469	300.838	130.429	120.116	129.761	137.472	189.874	119.853	112.548	113.670	130.787	176.385	122.217	117.967	47.368
15.000	278.349	296.994	290.095	281.524	229.957	298.904	306.400	305.063	281.238	242.443	294.654	299.047	141.650	122.264	129.522	137.209	189.253	120.689	112.858	113.956	136.254	176.553	123.935	120.163	49.760
16.000	266.723	294.272	290.190	281.930	230.698	297.233	306.138	304.753	275.747	241.632	292.792	296.564	153.610	125.296	129.570	137.090	188.632	121.930	113.455	114.625	141.888	177.388	126.132	122.813	38.209
17.000	254.738	291.121	289.760	282.216	230.865	295.466	305.063	303.631	270.423	240.915	289.259	293.246	164.687	128.495	129.689	137.090	188.131	123.768	114.529	115.365	147.546	177.961	128.734	125.559	29.185
18.000	243.589	287.373	289.450	281.858	231.294	293.628	304.108	303.153	265.004	240.032	286.275	290.596	175.025	131.909	129.737	137.042	187.701	125.105	115.365	116.272	152.416	178.821	132.291	128.591	36.404
19.000	234.207	283.577	290.071	282.073	231.772	291.981	302.771	301.387	260.205	239.101	281.954	286.872	185.219	136.039	129.761	136.899	187.367	127.660	116.726	117.537	157.860	180.110	136.421	131.909	47.459
20.000	225.756	279.375	290.166	282.193	232.178	289.378	301.244	300.312	256.003	237.669	277.251	283.386	194.458	140.217	129.832	137.066	187.248	129.975	118.254	118.970	162.801	181.494	141.172	135.824	46.601
21.000	218.761	275.221	289.092	281.811	232.154	286.752	299.453	298.713	250.918	235.783	272.452	279.734	201.357	144.729	130.262	137.448	187.105	132.554	120.283	120.617	167.767	183.046	146.329	139.405	36.675
22.000	220.647	270.781	289.092	280.784	232.082	283.649	296.851	296.755	246.382	233.825	266.890	276.129	199.280	148.931	130.501	137.854	186.937	135.204	122.169	122.264	172.685	184.884	151.820	143.512	31.802
23.000	225.947	265.863	288.304	280.163	231.820	280.712	294.535	295.418	241.632	232.345	261.399	271.784	193.718	153.324	130.811	138.307	186.890	138.355	124.652	124.007	177.603	186.866	157.287	147.331	38.931
24.000	231.390	261.327	287.946	279.423	232.082	277.489	291.814	292.721	237.931	229.361	255.693	268.036	188.752	158.122	131.265	138.976	186.961	141.554	127.660	126.442	181.924	189.062	163.160	151.103	45.879
25.000	235.281	257.340	287.874	279.495	232.225	274.744	289.116	291.002	234.660	226.830	249.534	264.120	184.884	162.682	131.742	139.644	186.937	144.849	130.548	128.376	185.051	191.664	169.462	155.377	43.262
26.000	234.756	257.555	286.967	278.826	231.820	274.028	287.564	291.384	234.040	225.350	248.412	264.741	185.290	162.228	132.005	139.883	187.367	145.445	132.029	128.137	186.245	193.670	170.847	154.684	36.089
27.000	233.324	259.298	287.182	279.089	231.772	274.792	287.898	291.814	233.562	224.968	248.746	265.768	186.770	160.820	132.315	139.787	187.534	144.729	131.599	127.421	186.174	194.123	170.441	153.395	34.148
28.000	232.082	260.133	287.373	279.137	231.414	275.054	288.400	292.673	233.706	224.514	248.770	266.866	187.988	160.175	132.148	139.477	187.463	143.941	131.623	126.967	186.269	194.625	170.250	152.679	40.916
29.000	231.509	259.919	287.445	279.041	231.461	275.627	288.280	292.912	234.088	224.538	248.674	267.439	188.537	159.698	132.267	139.429	187.582	143.607	131.623	126.633	186.197	195.031	170.202	152.058	46.195
30.000	237.382	258.176	286.800	279.829	231.796	274.744	287.445	291.479	233.419	223.106	246.573	265.242	182.831	161.775	132.363	139.644	187.701	144.538	132.602	127.588	186.842	195.818	172.494	153.706	41.954
31.000	246.740	264.550	286.848	278.826	231.127	271.378	283.673	289.522	232.416	221.888	241.202	270.113	174.428	155.305	132.792	140.289	187.582	147.666	135.968	130.143	187.678	197.346	178.295	149.313	34.961
32.000	284.317	282.670	285.941	277.657	231.390	267.654	280.068	288.686	232.106	221.769	247.791	284.007	135.753	137.257	133.318	141.268	187.821	151.199	139.334	131.002	187.678	197.299	171.348	135.657	34.284
33.000	298.331	291.766	285.630	276.940	231.103	266.460	277.442	290.453	232.130	223.368	260.587	291.050	120.617	127.564	133.795	142.055	188.060	153.324	142.294	128.949	187.797	195.293	158.838	128.400	42.811
34.000	305.756	296.708	285.081	277.036	231.103	266.603	277.848	293.700	232.536	226.281	271.545	294.487	114.291	123.028	134.368	142.294	188.418	152.393	141.841	125.654	187.176	192.619	146.544	124.294	49.534
35.000	309.002	299.095	284.651	277.036	230.363	270.256	280.426	296.636	235.305	229.265	280.092	297.400	110.519	120.641	134.583	141.936	188.704	148.716	139.095	122.790	184.383	189.182	138.116	121.596	41.683
36.000	310.506	300.885	285.033	276.702	230.530	275.603	284.484	298.498	240.056	232.822	285.869	298.976	108.585	119.185	135.156	141.650	188.800	144.610	135.442	120.617	179.632	186.197	132.649	120.402	29.907
37.000	311.724	301.291	284.699	278.230	230.292	280.354	288.424	300.432	246.335	235.544	289.546	299.596	107.654	118.349	135.060	140.933	188.895	138.856	131.241	118.779	172.781	183.333	128.973	119.376	32.434
38.000	312.392	301.888	284.437	278.397	230.101	284.461	291.527	301.435	252.470	238.218	291.646	300.599	106.723	117.681	134.846	140.146	188.776	134.678	127.588	117.227	165.977	180.897	126.800	118.612	45.744
39.000	312.751	302.342	285.368	279.041	230.053	287.755	294.344	302.509	258.653	239.531	293.747	301.458	106.914	117.442	134.464	139.620	188.919	131.265	124.962	116.368	159.483	179.202	125.320	118.301	50.662
40.000	313.324	302.246	285.296	279.853	230.172	290.238	296.827	303.512	263.595	241.059	294.583	301.649	106.556	117.203	134.129	139.023	188.943	128.830	122.527	115.580	154.326	178.033	124.246	117.466	40.555
41.000	313.085	302.604	286.132	280.307	229.838	291.981	298.546	304.204	267.821	241.154	295.156	302.151	106.961	116.845	133.509	138.713	189.182	127.087	120.784	115.174	150.148	177.698	123.458	117.299	28.509
42.000	313.324	302.915	286.514	280.712	229.743	293.652	300.336	304.466	271.139	241.727	295.824	302.366	106.221	116.678	133.270	138.451	189.349	125.678	119.280	114.840	146.353	177.078	122.933	116.941	34.239
43.000	312.655	302.771	287.039	280.450	229.647	294.583	301.148	304.228	273.885	242.539	296.612	302.628	106.245	116.702	132.673	138.188	189.587	124.628	118.134	114.601	143.273	176.863	122.455	116.821	47.774
44.000	312.918	302.843	286.872	280.712	229.170	295.442	302.127	304.920	276.678	242.133	296.564	302.222	106.317	116.773	132.387	138.140	189.707	124.031	117.346	114.219	140.384	176.624	122.264	116.654	49.624
45.000	313.395	303.082	287.301	280.999	228.859	296.111	302.652	304.992	279.399	242.395	296.875	302.724	106.174	116.630	132.076	138.116	190.089	123.267	116.678	114.147	138.069	176.576	122.145	116.582	37.442
46.000	313.419	303.368	288.065	280.951	228.979	296.564	303.368	305.111	280.999	241.942	296.779	302.748	106.126	116.439	131.790	138.140	190.256	122.766	116.081	114.147	136.015	176.457	122.145	116.582	28.238
47.000	313.109	303.726	288.233	280.617	228.597	296.684	303.583	304.705	282.980	242.157	296.684	302.915	106.317	116.535	131.623	137.997	190.447	122.455	115.795	114.076	134.488	176.600	121.882	116.511	36.810
48.000	313.682	303.440	288.400	280.999	228.430	296.946	303.989	304.968	284.246	242.252	296.946	302.700	106.269	116.463	131.479	138.164	190.829	122.217	115.269	114.028	132.960	176.887	121.763	116.248	49.895
49.000	313.061	303.106	288.209	280.927	228.286	297.352	304.156	305.016	285.821	242.563	297.663	303.607	106.078	116.439	131.050	137.901	191.020	122.097	115.102	114.052	131.623	176.744	121.620	116.272	47.368
50.000	313.992	302.867	288.662	280.832	228.143	297.925	304.920	304.992	287.325	241.703	296.517	303.034	106.341	116.439	131.121	138.069	191.068	121.620	114.744	114.028	130.429	177.054	121.835	116.296	33.652
51.000	313.873	303.392	288.543	280.569	227.594	298.188	305.063	304.872	288.280	242.109	297.185	303.177	106.030	116.487	130.906	138.140	191.330	121.429	114.410	113.956	129.474	177.030	121.644	116.200	28.734
52.000	314.135	303.392	288.996	280.163	227.666	298.235	305.374	305.230	289.593	241.441	297.090	303.010	106.150	116.415	130.954	138.164	191.450	121.238	114.434	113.909	128.639	177.221	121.524	116.272	40.239
53.000	313.753	303.058	288.519	280.283	227.546	298.068	305.230	305.135	290.190	241.417	297.161	303.273	106.102	116.582	130.906	138.212	191.617	121.118	114.028	113.885	128.018	177.269	121.548	116.177	51.339
54.000	314.016	303.153	288.591	280.736	227.236	298.188	305.827	305.063	290.978	241.918	297.328	303.082	105.983	116.439	130.692	138.164	191.760	120.904	113.837	114.028	127.158	177.436	121.453	116.200	44.932
55.000	313.276	303.106	289.044	280.330	227.331	298.570	305.445	305.278	291.694	241.751	297.710	303.488	106.197	116.559	130.763	138.355	191.855	120.880	113.932	113.909	126.633	177.460	121.476	116.105	31.216
56.000	314.040	303.368	288.949	280.498	226.997	298.403	305.803	305.398	292.148	241.703	297.328	303.010	106.078	116.439	130.620	138.379	191.855	120.713	113.741	113.885	126.203	177.460	121.453	116.200	30.313
57.000	313.705	303.225	289.068	280.712	227.188	298.331	305.756	305.254	292.506	241.178	297.472	303.535	105.911	116.296	130.596	138.355	192.094	120.880	113.646	113.837	125.798	177.436	121.333	116.057	44.300
58.000	313.491	302.962	288.973	280.689	226.663	298.761	305.803	305.135	292.983	241.417	297.472	302.843	105.959	116.391	130.477	138.355	192.046	120.689	113.598	113.789	125.368	177.675	121.500	116.129	51.429
59.000	313.443	303.464	288.925	280.617	226.949	298.737	305.970	305.398	293.485	241.226	297.233	303.512	106.078	116.344	130.453	138.498	192.452	120.593	113.360	113.837	124.986	177.746	121.453	115.962	41.052
60.000	313.467	303.082	289.068	280.641	226.663	298.450	306.233	305.183	293.795	241.464	297.495	303.607	106.054	116.559	130.477	138.427	192.404	120.522	113.312	113.741	124.699	177.698	121.596	116.224	28.779
61.000	314.087	302.986	288.686	280.330	226.758	298.570	306.209	305.445	294.487	241.488	297.400	303.130	106.006	116.415	130.525	138.379	192.404	120.498	113.336	113.885	124.508	177.818	121.333	115.962	33.111
62.000	313.228	303.297	289.355	280.474	226.591	298.737	306.138	305.111	294.129	241.202	297.400	302.939	106.078	116.415	130.548	138.498	192.476	120.474	113.288	113.885	124.174	177.889	121.548	116.081	47.052
63.000	313.825	303.010	289.068	280.832	226.711	299.190	306.185	305.278	294.965	241.178	297.376	303.153	106.174	116.463	130.453	138.427	192.452	120.331	113.216	113.837	123.959	177.842	121.381	116.129	50.030
64.000	313.634	303.535	289.426	280.426	226.663	298.976	306.233	305.254	294.965	240.963	297.161	302.843	105.959	116.415	130.548	138.641	192.595	120.307	113.192	113.694	123.649	177.985	121.429	116.177	38.029
65.000	313.586	303.798	289.355	280.641	226.496	298.880	306.185	305.230	295.395	240.844	297.137	303.058	106.006	116.487	130.453	138.594	192.715	120.331	113.121	113.837	123.458	177.961	121.453	116.177	28.193
66.000	313.467	303.344	289.378	280.569	226.926	298.832	306.138	305.087	294.989	240.677	297.543	303.368	106.030	116.487	130.334	138.451	192.786	120.235	113.121	113.956	123.362	178.128	121.142	115.890	36.585
67.000	313.419	303.130	289.235	280.235	226.185	298.713	306.281	304.968	295.514	240.796	297.137	303.583	106.006	116.559	130.477	138.427	192.786	120.259	113.121	113.932	123.100	177.842	121.238	116.057	49.354
68.000	313.371	303.225	288.996	280.569	226.329	298.713	306.424	305.087	295.729	241.011	297.352	303.225	105.935	116.296	130.572	138.594	192.786	120.331	112.978	113.694	122.861	178.009	121.214	116.129	47.774
69.000	313.586	303.321	289.641	280.330	226.257	298.952	306.329	304.944	295.872	241.106	297.257	302.867	105.792	116.559	130.334	138.713	192.786	120.283	113.001	113.789	122.790	178.200	121.500	116.057	33.066
70.000	313.514	303.416	289.522	280.307	226.520	298.785	306.663	305.087	296.135	240.987	297.710	303.201	105.935	116.391	130.477	138.498	192.763	120.068	112.882	113.861	122.718	178.104	121.357	116.033	28.869
71.000	313.514	303.321	289.522	280.163	226.376	298.904	306.400	304.992	296.564	240.605	297.328	303.225	105.815	116.439	130.548	138.785	192.858	120.116	112.882	113.765	122.503	178.033	121.333	115.962	40.646
72.000	313.634	303.631	289.307	280.139	226.520	298.880	306.472	305.207	296.612	240.414	297.185	302.986	106.126	116.582	130.453	138.713	192.906	120.163	112.787	113.980	122.455	178.224	121.405	116.153	51.294
73.000	313.467	303.488	289.426	280.307	226.376	298.665	306.591	304.896	296.970	240.963	297.424	302.986	105.935	116.391	130.310	138.618	192.858	120.187	112.858	113.861	122.336	178.248	121.262	116.009	44.165
74.000	313.634	303.750	289.450	279.996	226.114	298.880	306.567	305.254	296.660	240.915	297.233	303.153	106.150	116.535	130.429	138.785	193.001	119.972	112.715	113.789	122.193	178.248	121.309	116.033	30.088
75.000	313.467	303.058	289.187	280.474	226.185	298.808	306.567	305.135	296.779	240.557	297.328	303.082	105.792	116.463	130.405	138.737	193.001	119.925	112.763	113.789	122.073	178.200	121.381	115.962	31.035
76.000	313.204	303.273	289.283	280.378	226.448	299.047	306.400	304.729	296.827	240.677	297.567	303.034	106.221	116.391	130.310	138.832	193.025	120.235	112.739	113.765	121.930	178.343	121.238	116.009	44.526
77.000	313.849	303.034	289.235	280.163	225.971	298.999	306.902	305.374	297.304	241.011	297.567	303.058	105.887	116.368	130.381	138.665	193.001	120.092	112.715	113.789	121.858	178.319	121.333	115.914	51.158
78.000	313.873	303.177	288.949	280.211	226.090	299.071	306.878	305.469	297.639	240.700	297.400	303.177	106.174	116.344	130.334	138.880	193.001	120.163	112.643	113.837	121.739	178.343	121.238	116.009	40.465
79.000	313.896	302.939	289.498	280.068	225.923	299.095	307.045	305.159	297.448	240.438	297.185	303.106	105.959	116.391	130.477	138.832	193.049	120.116	112.619	113.813	121.667	178.391	121.381	116.105	28.283
80.000	313.228	303.535	289.187	279.925	226.114	299.023	306.496	305.230	297.424	240.342	297.519	303.225	105.839	116.654	130.381	138.904	193.073	120.044	112.667	113.741	121.548	178.295	121.238	115.938	33.652
81.000	313.443	303.321	289.402	280.092	226.090	299.596	306.758	305.016	297.519	240.677	297.543	303.082	106.102	116.559	130.334	138.665	193.192	120.092	112.691	113.861	121.381	178.343	121.429	116.177	47.684
82.000	313.634	303.153	289.474	280.235	225.923	299.596	307.140	305.302	297.854	240.629	297.448	302.867	105.983	116.535	130.334	138.809	193.073	120.140	112.643	113.741	121.381	178.415	121.238	116.105	49.805
83.000	314.159	302.700	288.901	279.972	226.042	299.907	306.925	305.398	298.164	240.844	297.400	303.201	106.102	116.535	130.357	138.689	193.168	119.972	112.524	113.909	121.262	178.462	121.262	115.962	37.036
84.000	313.228	302.819	289.331	280.020	226.209	299.023	306.734	304.968	297.663	240.915	297.591	303.488	106.174	116.439	130.405	138.976	193.216	120.068	112.691	113.813	121.166	178.462	121.357	116.009	28.148
85.000	313.705	303.130	288.996	280.569	225.971	299.381	306.925	305.230	297.830	240.629	297.209	303.082	105.887	116.511	130.286	138.904	193.216	120.092	112.619	113.885	121.023	178.486	121.285	115.914	36.585
86.000	313.658	303.034	288.949	279.972	225.923	299.119	306.949	305.087	298.068	240.748	297.567	303.058	105.887	116.415	130.405	138.880	193.192	120.140	112.548	113.765	121.047	178.415	121.333	115.866	49.850
87.000	313.276	303.082	289.331	280.020	226.138	299.262	306.591	305.063	297.734	240.605	297.734	303.655	106.126	116.415	130.357	138.856	193.168	120.020	112.596	113.789	120.951	178.486	121.190	116.057	47.188
88.000	313.634	303.273	289.068	279.996	225.971	299.071	306.758	305.063	298.212	240.581	297.615	303.464	106.317	116.415	130.357	139.095	193.240	120.044	112.500	113.741	120.784	178.630	121.405	116.033	33.427
89.000	314.111	302.604	289.044	280.283	226.138	299.692	307.069	305.302	298.641	240.653	297.567	302.891	106.006	116.511	130.381	138.832	193.288	119.925	112.548	113.837	120.832	178.534	121.285	115.914	28.869
90.000	313.061	303.488	289.522	280.092	226.138	299.238	306.854	305.421	298.331	240.533	297.161	303.177	105.863	116.415	130.357	138.928	193.264	119.901	112.214	113.813	120.617	178.439	121.262	116.105	40.330
91.000	314.207	302.962	289.187	280.378	225.947	299.453	307.116	305.135	298.355	240.533	297.519	303.058	105.863	116.463	130.262	138.809	193.168	120.044	112.428	113.885	120.736	178.510	121.166	115.986	51.158
92.000	313.467	303.703	289.116	279.710	226.018	299.668	306.949	305.660	298.474	240.677	297.448	303.512	106.197	116.439	130.334	138.952	193.264	120.068	112.476	113.670	120.617	178.486	121.357	115.914	45.112
93.000	313.729	303.177	288.805	280.283	225.851	298.999	307.260	305.398	298.426	240.557	297.782	302.986	106.269	116.535	130.262	138.856	193.336	120.092	112.524	113.837	120.713	178.677	121.333	115.986	31.351
94.000	313.491	303.273	289.164	280.235	225.899	298.976	306.854	305.063	298.355	240.366	297.639	303.583	105.863	116.511	130.334	138.904	193.288	119.972	112.405	113.885	120.665	178.653	121.190	115.962	30.133
95.000	314.087	303.106	289.068	280.211	225.947	299.334	307.236	305.326	298.546	240.509	297.328	303.297	105.887	116.606	130.453	139.071	193.431	119.996	112.452	113.765	120.498	178.558	121.238	115.866	43.984
96.000	313.443	303.535	289.307	280.235	225.780	299.143	306.973	304.968	298.546	240.462	297.495	303.034	105.935	116.344	130.453	138.976	193.455	119.996	112.357	113.670	120.474	178.558	121.238	116.009	51.474
97.000	313.729	303.321	288.996	280.354	225.899	299.501	307.069	305.183	298.522	240.844	297.639	303.130	106.102	116.487	130.381	138.761	193.383	119.877	112.381	113.885	120.474	178.630	121.214	116.033	41.413
98.000	312.965	303.106	289.378	280.020	225.851	299.286	306.758	305.135	298.307	240.700	298.068	303.941	106.174	116.439	130.357	138.856	193.216	120.044	112.405	113.885	120.522	178.773	121.238	116.009	28.869
99.000	313.849	302.986	289.450	280.330	225.827	299.334	307.307	305.111	298.689	240.271	297.424	303.321	105.983	116.487	130.334	139.000	193.312	119.949	112.285	113.789	120.402	178.677	121.381	116.033	32.389
100.000	313.992	303.201	289.355	280.259	225.971	299.190	307.093	305.254	298.474	239.984	297.233	302.939	105.887	116.487	130.334	139.047	193.264	119.734	112.309	113.741	120.331	178.606	121.262	115.962	46.466
101.000	313.252	303.106	288.949	279.638	225.684	299.525	307.045	305.517	298.832	240.271	297.472	303.321	106.245	116.296	130.334	138.904	193.407	119.758	112.357	113.885	120.331	178.749	121.381	116.033	50.707
102.000	313.324	303.082	289.474	280.283	225.493	299.334	306.997	305.183	299.023	240.223	297.328	303.225	106.078	116.511	130.286	138.904	193.407	119.901	112.237	113.741	120.331	178.653	121.262	115.986	39.472
103.000	313.658	303.774	289.378	279.781	225.875	299.262	306.949	305.398	298.880	240.175	297.113	302.795	106.054	116.439	130.453	138.928	193.312	119.758	112.333	113.837	120.354	178.964	121.142	116.057	28.238
104.000	313.634	303.464	289.426	279.996	225.827	298.999	307.212	305.135	298.952	240.271	297.328	303.153	106.102	116.368	130.381	138.952	193.431	119.853	112.333	113.718	120.140	178.797	121.309	115.986	34.148
105.000	313.180	303.177	289.402	279.734	225.660	299.190	306.806	305.350	299.023	240.319	297.328	303.273	105.863	116.391	130.357	139.023	193.383	119.972	112.237	113.861	120.116	178.677	121.071	116.033	47.774
106.000	313.395	303.201	288.996	279.829	225.350	298.976	307.021	305.254	298.904	240.247	297.639	303.631	105.959	116.320	130.262	139.047	193.407	119.901	112.261	113.837	120.283	178.701	121.238	116.081	49.985
107.000	313.467	303.249	289.211	279.948	225.708	299.262	307.021	305.087	298.665	240.796	297.901	302.986	105.815	116.344	130.429	138.952	193.455	119.805	112.381	113.813	120.235	178.677	121.285	115.914	37.397
108.000	313.562	303.392	289.164	279.781	225.589	299.477	307.403	304.944	298.904	240.509	297.686	303.106	106.365	116.559	130.262	138.832	193.359	120.020	112.405	113.885	120.116	178.797	121.333	116.033	28.102
109.000	313.896	303.082	289.116	279.901	226.042	299.405	307.140	305.039	299.286	240.295	297.257	303.440	106.030	116.487	130.405	138.928	193.359	119.758	112.309	113.885	119.972	178.749	121.285	115.938	36.495
110.000	313.204	303.344	289.355	279.972	225.660	299.095	306.854	305.087	298.904	240.557	297.304	303.034	105.911	116.368	130.405	138.976	193.407	119.805	112.285	113.765	119.949	178.653	121.190	116.009	49.669
111.000	313.658	303.130	289.307	280.092	226.018	299.023	306.949	305.230	299.167	240.199	297.663	303.201	105.744	116.463	130.310	139.023	193.359	119.805	112.285	113.932	120.092	178.797	121.214	115.962	47.774
112.000	314.040	303.153	289.044	280.163	225.541	299.835	307.307	305.302	298.880	240.414	297.591	303.010	105.911	116.511	130.310	139.238	193.383	119.925	112.309	113.837	119.996	178.653	121.118	115.914	33.968
113.000	313.753	303.130	288.805	279.829	225.923	299.358	307.307	305.421	299.238	240.533	297.782	303.273	105.983	116.439	130.501	139.023	193.503	119.781	112.166	113.861	119.949	178.797	121.095	116.105	28.554
114.000	313.610	303.249	289.307	279.996	225.732	299.405	307.331	304.944	299.167	240.319	297.710	303.703	105.959	116.439	130.357	139.000	193.431	119.996	112.261	113.789	119.805	178.892	121.142	115.914	40.149
115.000	313.682	303.440	289.140	280.020	225.827	299.405	307.427	305.278	299.381	239.984	297.066	303.177	105.983	116.439	130.334	139.000	193.407	119.877	112.309	113.885	120.020	178.821	121.190	115.771	51.113
116.000	313.896	303.392	289.259	280.163	225.899	299.262	307.188	305.230	299.190	240.175	297.710	303.082	106.006	116.439	130.405	139.071	193.336	119.996	112.142	113.765	119.853	178.725	121.190	116.033	45.067
117.000	313.873	303.225	289.880	280.044	225.923	299.429	307.379	305.183	299.310	240.056	297.376	303.297	106.006	116.463	130.381	139.095	193.455	119.877	112.357	113.980	119.853	178.821	121.190	115.890	30.945
118.000	313.491	303.034	289.211	279.877	225.899	299.190	306.711	305.039	299.405	240.605	297.686	303.249	105.911	116.344	130.381	139.000	193.455	119.710	112.023	113.718	119.710	178.821	121.190	116.057	29.817
119.000	313.968	303.321	288.805	279.829	225.756	299.549	307.403	305.398	299.596	240.199	297.710	303.153	105.792	116.415	130.334	138.904	193.407	119.781	112.070	113.789	119.686	178.797	121.214	116.009	43.082
120.000	313.419	303.273	289.187	279.638	225.994	299.477	307.522	305.230	299.071	239.889	297.376	303.010	105.935	116.535	130.214	138.976	193.407	119.805	112.190	113.789	119.781	178.821	121.285	115.986	51.429
