-----------------------------------------------------
BloodHound 307 VOC Analyser V2017.1
RoboScientific Ltd 
Espace North
Wisbech Road
Littleport
Cambridgeshire, UK
CB6 1RA 
-----------------------------------------------------
Date = 04/02/2021
Time = 11:35:36
Data is protected by RoboScientific Limited
-----------------------------------------------------
Name of the experiment = "1114N"
-----------------------------------------------------
Repeat No. = 2/4
-----------------------------------------------------
Experimental Time (in sec) and Flow Profile :
-----------------------------------------------------
Baseline = 2.00
Absorb = 10.00
Pause = 1.00
Desorb = 5.00
Flush = 10.00
Wait = 5.00
Higher Flow (V) = 4.00
Medium Flow (V) = 3.00
Low Flow (V) = 1.00
-----------------------------------------------------
Total Profile Time = 33 in sec
-----------------------------------------------------
Acquired data point per second = 4
--------------------------------------------------
Total data point stored  = 112
-----------------------------------------------------
Acquired sensor responses from 24 sensors
-----------------------------------------------------

Data Points	 Sen-1	 Sen-2	 Sen-3	 Sen-4	 Sen-5	 Sen-6	 Sen-7	 Sen-8	 Sen-9	 Sen-10	 Sen-11	 Sen-12	 Sen-13	 Sen-14	 Sen-15	 Sen-16	 Sen-17	 Sen-18	 Sen-19	 Sen-20	 Sen-21	 Sen-22	 Sen-23	 Sen-24	Humidity (%r.h.)
0.000	316.761	303.583	314.660	315.090	311.915	314.780	315.233	315.377	313.443	311.891	315.114	315.424	103.094	116.320	104.980	104.144	107.391	104.240	104.455	103.739	105.911	107.439	103.643	103.810	26.568
1.000	316.523	303.344	314.708	314.947	311.652	315.233	315.257	315.400	313.634	311.676	314.756	315.735	103.237	116.081	104.765	104.264	107.343	104.192	104.311	103.762	105.696	107.343	103.762	103.786	34.645
2.000	316.618	303.153	314.684	314.875	311.628	315.090	315.138	315.329	313.419	311.796	315.090	315.472	103.285	116.129	104.861	104.120	107.367	104.216	104.288	103.691	105.863	107.343	103.691	103.715	50.752
3.000	316.427	303.488	314.684	314.851	312.010	314.804	314.995	315.377	313.300	311.915	315.042	315.782	103.309	116.200	104.884	104.073	107.200	104.240	104.407	103.906	105.911	107.391	103.762	103.834	49.669
4.000	316.379	303.655	314.517	314.637	311.843	315.210	315.138	315.615	313.467	311.987	315.186	315.615	103.142	116.248	104.861	104.168	107.296	104.240	104.168	103.691	105.863	107.439	103.762	103.858	33.878
5.000	316.642	303.249	314.207	314.804	311.867	315.114	315.281	315.591	313.467	311.748	315.162	315.639	102.951	116.320	104.884	104.216	107.296	104.216	104.359	103.667	105.792	107.320	103.715	103.762	26.749
6.000	316.499	303.846	315.066	315.066	311.867	315.114	315.138	315.520	313.538	311.700	314.804	315.639	102.975	116.224	104.932	104.216	107.343	104.240	104.192	103.667	105.768	107.415	103.834	103.810	39.202
7.000	316.403	303.559	314.780	314.875	311.414	314.875	315.138	315.424	313.395	311.796	314.899	315.400	102.807	116.248	104.932	104.120	107.296	104.168	104.359	103.691	105.959	107.272	103.643	103.762	52.783
8.000	316.785	303.846	314.899	315.042	311.915	314.899	315.257	315.568	313.347	311.867	315.329	315.424	103.070	116.177	104.693	104.216	107.296	104.144	104.144	103.643	105.744	107.415	103.834	103.858	46.511
9.000	316.523	303.488	314.541	314.971	311.772	315.257	315.138	315.472	313.610	311.819	315.257	315.591	103.094	116.320	104.861	104.120	107.320	104.311	104.359	103.667	105.768	107.320	103.619	103.739	30.449
10.000	316.475	303.941	314.899	314.732	311.796	314.995	315.138	315.424	313.324	311.748	315.066	315.663	103.094	115.938	104.932	104.240	107.200	104.144	104.264	103.691	105.720	107.296	103.667	103.739	28.418
11.000	316.714	303.512	314.708	314.422	311.676	315.114	315.305	315.520	313.371	311.819	315.114	315.472	103.070	115.986	104.765	104.216	107.367	104.311	104.216	103.619	105.720	107.343	103.595	103.858	44.120
12.000	316.379	301.626	314.684	314.899	311.199	314.422	314.684	315.305	312.846	311.533	314.851	315.019	103.237	117.704	105.123	104.335	107.821	104.574	104.550	103.739	106.365	107.940	103.834	103.882	53.234
13.000	316.857	299.453	314.135	314.660	310.339	314.398	314.804	315.281	311.891	310.053	314.732	314.804	102.951	120.283	105.410	104.383	108.489	104.646	104.765	103.953	107.367	108.824	104.001	104.240	40.736
14.000	316.690	296.397	313.777	313.920	309.504	314.493	314.231	315.066	310.793	309.146	314.111	314.565	103.022	123.362	105.648	104.813	109.492	104.980	105.314	104.120	108.489	109.946	104.407	104.693	26.929
15.000	316.523	293.174	313.538	313.825	308.597	313.849	313.491	314.804	309.337	307.904	313.825	314.016	103.094	126.012	106.078	105.028	110.375	105.457	106.030	104.264	109.826	111.115	105.052	105.290	33.291
16.000	316.857	289.522	312.703	313.658	308.000	313.562	312.369	314.684	307.427	306.305	312.798	313.156	102.927	129.713	106.603	105.338	111.378	105.911	107.057	104.431	111.712	112.619	105.529	105.720	49.128
17.000	317.024	286.370	312.249	313.133	306.830	312.727	311.103	314.589	305.636	304.681	312.130	312.512	102.784	133.198	107.152	105.625	112.285	106.508	108.465	104.693	113.813	114.386	106.603	106.603	50.933
18.000	316.642	283.028	311.891	313.133	305.660	311.628	308.931	313.873	303.440	303.392	311.223	311.103	102.998	136.946	107.606	106.126	113.574	107.463	110.447	105.195	115.986	115.914	107.869	107.701	35.412
19.000	316.761	279.256	311.199	312.345	304.299	310.650	306.615	313.538	301.076	301.482	309.623	309.957	103.070	140.599	108.060	106.508	114.673	108.251	112.691	105.648	118.516	117.537	109.229	109.110	27.381
20.000	316.618	275.007	311.079	311.891	303.392	309.719	304.108	312.965	297.782	299.644	307.976	308.788	103.046	144.132	108.394	106.747	115.747	109.635	115.341	106.221	121.238	119.328	110.710	110.590	39.472
21.000	316.427	271.306	310.220	311.652	302.222	308.358	301.554	312.154	294.989	297.519	305.923	306.878	102.903	148.334	109.229	107.343	116.964	110.757	117.824	106.914	124.532	121.644	112.834	112.190	51.880
22.000	316.499	267.773	310.124	310.984	300.862	306.806	298.307	311.414	291.694	295.657	304.156	305.517	103.118	152.011	109.778	107.988	118.325	111.999	120.760	107.367	127.469	123.553	114.911	114.243	44.571
23.000	316.952	264.550	308.955	310.530	299.835	305.541	295.395	310.769	288.710	294.034	301.578	303.058	102.903	155.401	110.471	108.633	119.352	113.503	123.888	108.274	130.811	125.774	117.322	116.057	30.223
24.000	316.523	260.969	308.453	310.077	298.617	303.893	292.315	309.695	285.224	291.551	298.737	301.554	102.975	158.743	110.972	108.943	120.354	115.126	127.158	109.444	134.106	127.469	119.590	117.657	30.990
25.000	316.785	257.364	307.880	309.432	297.472	302.366	289.498	308.907	282.169	289.546	296.087	298.785	102.951	161.870	111.569	109.611	121.476	116.797	130.071	110.351	137.448	129.689	122.455	119.853	44.616
26.000	316.618	255.478	307.403	308.597	296.421	300.265	286.012	307.475	278.755	287.683	293.700	296.875	103.118	164.735	112.261	110.328	122.575	118.636	133.246	111.402	140.456	131.670	125.081	121.930	50.707
27.000	316.570	252.589	306.925	307.713	295.466	298.713	282.956	306.543	275.699	285.702	291.002	295.036	103.166	167.409	112.858	111.092	123.744	120.569	136.708	112.643	143.559	133.604	128.089	124.270	40.555
28.000	316.618	249.749	306.018	307.379	294.296	296.636	280.092	305.063	272.763	283.888	288.089	292.768	103.142	170.131	113.455	111.736	124.676	122.813	139.740	113.789	146.615	135.466	130.572	126.538	29.591
29.000	317.024	247.194	305.326	306.806	293.795	294.726	277.179	304.299	270.160	281.787	285.248	290.524	102.855	172.566	114.195	112.715	125.559	124.604	142.318	114.864	149.361	137.257	133.318	128.448	35.457
30.000	316.308	245.093	304.275	305.374	292.363	292.243	273.670	302.676	266.914	279.757	282.503	288.662	103.118	174.762	115.055	113.503	126.848	126.896	145.636	116.272	152.034	139.023	136.015	130.859	46.872
31.000	316.690	243.398	303.798	304.562	290.954	290.095	271.091	301.267	264.693	278.516	280.211	286.275	102.975	176.815	115.723	114.147	127.803	128.806	148.382	117.704	154.852	141.053	138.570	132.816	47.504
32.000	317.000	241.632	303.058	303.798	290.190	288.137	268.036	299.883	262.282	276.415	277.585	284.293	103.189	178.773	116.439	115.198	129.068	131.288	151.676	119.041	157.239	142.652	141.315	135.156	36.810
33.000	316.403	239.220	302.366	303.058	289.116	285.965	265.433	298.188	259.393	275.007	274.816	281.978	102.784	180.707	117.155	116.105	130.143	133.461	154.231	120.736	159.746	144.347	143.583	136.755	30.810
34.000	316.570	238.003	301.124	301.984	288.089	283.792	262.378	296.755	257.460	273.240	272.428	280.163	102.855	182.473	118.110	116.750	131.217	135.323	156.905	122.097	161.775	146.018	145.995	138.880	39.157
35.000	316.499	235.878	300.312	301.076	286.824	281.739	259.919	295.514	255.025	271.426	270.304	278.325	102.998	184.097	119.041	117.991	132.411	137.328	159.579	123.721	164.019	147.642	148.597	140.933	47.820
36.000	316.618	234.565	299.501	300.241	285.774	279.710	257.388	293.795	253.186	270.280	268.203	276.487	103.094	185.601	120.068	118.898	133.628	139.429	162.228	125.296	166.454	149.456	150.889	143.010	43.714
37.000	316.952	233.061	297.949	298.546	284.150	278.039	255.048	292.745	251.515	268.680	265.959	274.219	103.022	187.128	121.190	120.140	134.965	141.220	164.544	126.609	168.245	150.793	152.894	144.825	34.013
38.000	316.737	232.034	296.994	297.734	283.028	276.033	252.757	290.882	248.937	266.866	264.096	273.503	102.831	188.585	122.002	120.832	136.159	143.177	166.573	128.233	170.322	152.297	154.852	146.520	34.284
39.000	316.475	230.459	296.254	296.970	281.954	274.219	250.656	289.426	247.624	265.600	261.924	271.163	103.189	189.731	123.434	122.073	137.543	144.896	168.937	129.856	172.136	153.658	157.120	148.215	43.217
40.000	316.761	229.599	294.774	295.442	280.832	272.810	248.650	288.042	245.953	263.905	259.895	269.611	103.070	191.115	124.389	123.100	138.594	146.711	171.038	131.336	173.831	155.043	158.743	149.886	46.466
41.000	316.260	228.167	293.819	294.869	279.757	271.258	246.931	286.251	244.305	262.974	258.391	267.630	103.118	192.237	125.798	124.461	139.883	148.406	172.828	132.816	175.550	156.547	160.748	151.629	40.104
42.000	316.737	227.093	292.625	293.485	278.039	269.372	244.902	284.723	242.443	261.661	256.361	266.269	102.927	193.383	127.063	125.535	141.363	150.101	174.571	134.511	177.030	158.051	162.658	153.252	33.427
43.000	317.000	226.257	290.954	292.076	276.081	267.367	243.207	283.458	240.939	260.659	254.810	264.192	102.951	194.243	128.257	126.371	142.533	151.438	176.242	135.992	178.367	159.101	164.425	154.708	37.487
44.000	317.263	225.183	290.214	291.169	275.317	266.197	242.014	281.787	239.578	258.820	253.019	262.688	102.975	195.245	129.379	127.851	144.180	153.419	177.985	137.472	180.038	160.104	165.905	156.594	44.977
45.000	316.618	224.705	288.662	289.784	273.765	264.264	240.128	280.402	238.122	257.913	251.611	261.828	103.070	196.224	130.811	129.164	145.469	155.090	179.561	138.904	181.494	161.488	167.600	157.931	43.894
46.000	316.523	223.917	287.134	288.686	272.404	262.783	239.149	278.779	237.191	256.505	249.749	259.895	103.022	196.940	132.243	130.262	146.830	156.475	180.730	140.241	182.664	162.849	169.104	159.173	37.126
47.000	316.785	223.225	286.084	287.039	270.805	261.017	237.716	277.394	235.830	255.454	248.626	258.773	102.879	197.490	133.509	131.527	148.167	158.170	182.043	141.841	183.858	163.876	170.441	160.462	34.780
48.000	317.167	222.342	284.675	286.036	269.993	259.537	236.141	276.200	234.613	254.475	247.170	257.316	102.951	198.158	134.869	132.983	149.599	159.817	183.380	143.154	185.195	164.998	171.921	161.870	41.007
49.000	316.881	221.697	283.434	284.890	268.298	258.247	235.687	274.649	233.371	253.306	245.523	256.027	102.855	198.564	136.230	134.106	151.199	161.202	184.383	144.443	186.102	165.857	172.972	163.136	44.797
50.000	316.690	222.127	283.338	284.675	268.370	258.319	235.568	274.696	233.944	253.712	245.738	256.242	103.285	198.444	136.684	134.177	151.223	161.106	184.407	144.490	185.911	165.857	172.948	163.088	41.774
51.000	317.096	222.748	283.291	285.344	268.680	258.606	235.711	275.269	234.541	254.046	246.478	256.696	102.903	198.182	136.517	133.986	151.223	160.915	184.025	144.180	185.815	165.451	172.542	162.825	35.412
52.000	316.475	222.485	283.434	285.392	268.346	258.773	235.854	275.126	234.804	253.902	246.669	256.887	103.070	197.943	136.350	133.962	151.151	160.796	183.858	143.965	185.648	165.380	172.470	162.515	36.449
53.000	316.546	222.915	282.765	284.938	268.203	258.558	236.069	275.436	234.398	254.070	246.549	257.078	102.975	197.895	136.302	133.747	151.271	160.772	183.834	143.989	185.768	165.213	172.494	162.467	43.127
54.000	316.761	222.199	282.479	284.413	267.654	258.033	234.995	274.410	233.037	253.186	245.165	255.860	103.022	198.468	137.209	134.511	152.011	161.918	184.860	145.016	186.603	166.144	173.497	163.565	44.436
55.000	316.714	231.796	284.723	286.657	271.831	262.903	243.446	277.609	241.751	260.038	252.518	263.333	102.927	188.632	134.559	132.196	147.331	156.045	175.956	141.626	177.364	158.862	165.523	155.377	39.608
56.000	316.785	248.316	290.310	291.837	280.187	273.025	257.555	284.986	256.457	271.139	265.672	276.296	103.070	172.972	129.856	127.636	139.668	146.973	163.064	134.846	163.971	148.644	154.040	143.536	33.472
57.000	317.167	266.150	295.991	297.376	289.307	283.959	272.667	292.840	271.951	283.195	279.041	289.593	102.951	155.114	123.267	121.476	130.716	136.063	147.928	126.920	148.644	137.209	141.029	130.787	36.991
58.000	316.618	280.450	301.482	302.103	296.111	292.577	284.795	299.310	284.222	292.530	289.522	298.976	103.046	139.811	117.657	116.391	123.004	126.657	134.869	119.781	135.514	126.609	129.044	120.092	48.000
59.000	316.499	290.835	305.660	306.042	301.960	299.883	294.392	304.825	293.891	299.978	298.140	305.875	102.831	129.546	113.861	112.787	117.227	119.781	125.917	114.792	126.323	119.710	120.641	112.978	48.180
60.000	316.761	297.639	308.716	308.955	305.541	303.607	299.907	307.952	299.501	304.443	303.488	310.244	103.094	123.315	111.569	110.590	114.004	115.938	120.235	111.450	120.163	114.840	115.389	109.420	34.194
61.000	316.451	302.079	309.862	309.910	307.522	306.376	303.297	310.101	303.750	307.689	307.355	312.178	103.142	118.779	109.707	108.633	111.664	112.954	116.248	109.182	116.272	112.094	112.142	107.415	27.741
62.000	317.000	304.681	310.960	311.461	309.719	308.668	305.803	311.772	305.780	309.217	309.122	313.562	102.903	115.914	108.561	107.630	110.184	111.235	114.123	107.701	113.956	110.137	109.468	105.935	40.194
63.000	316.523	306.329	311.700	311.939	310.077	309.408	307.140	312.512	307.427	310.411	310.697	314.016	103.022	113.980	107.725	106.938	109.038	109.969	112.619	106.699	112.094	108.609	107.725	105.147	53.053
64.000	316.570	307.427	312.058	312.536	311.103	310.292	307.952	313.610	308.429	311.414	312.178	314.828	103.213	112.954	107.463	106.508	108.251	108.824	111.426	105.839	111.187	107.797	106.579	104.574	44.661
65.000	316.737	308.024	312.583	312.918	311.652	311.127	308.668	313.896	309.337	311.772	313.204	315.353	103.261	112.261	107.105	106.221	107.916	108.442	110.781	105.338	110.447	107.343	105.720	104.383	29.321
66.000	316.618	308.286	312.965	313.228	312.082	311.700	309.050	314.183	309.862	312.536	313.634	314.899	103.022	111.927	106.890	105.815	107.367	107.678	110.256	104.837	109.731	107.009	105.147	104.192	29.727
67.000	316.618	308.310	312.989	313.395	312.058	311.676	309.480	314.517	310.053	312.655	314.016	315.138	103.142	111.593	106.818	105.696	107.224	107.439	109.850	104.479	109.516	106.770	104.598	103.834	45.744
68.000	316.475	308.668	313.085	313.324	312.130	312.082	309.408	314.995	310.697	312.894	314.565	315.305	103.309	111.378	106.603	105.577	107.152	107.129	109.707	104.192	109.110	106.579	104.455	104.025	52.963
69.000	316.642	308.382	312.751	313.658	312.058	312.464	309.957	315.090	310.578	312.703	314.780	315.639	103.094	111.521	106.627	105.266	106.914	106.770	109.659	104.168	108.800	106.412	103.953	103.810	40.555
70.000	316.905	308.334	312.679	313.634	312.321	313.085	309.981	315.353	310.721	312.942	315.186	315.663	103.142	111.617	106.484	105.338	106.842	106.436	109.564	104.025	108.656	106.460	104.025	103.858	26.884
71.000	316.952	307.952	312.918	314.183	312.440	313.324	310.244	315.353	310.793	312.798	315.090	315.663	103.070	111.784	106.388	105.052	106.651	106.245	109.516	104.025	108.489	106.317	103.715	103.786	34.058
72.000	316.666	308.143	313.133	313.968	312.321	313.443	310.244	315.329	311.247	312.846	315.066	315.663	102.998	111.903	106.317	104.908	106.484	105.863	109.253	103.691	108.155	106.388	103.786	103.762	50.166
73.000	316.284	307.785	313.514	314.374	312.655	313.705	310.077	315.257	311.605	312.822	315.114	315.902	103.070	112.237	106.150	104.765	106.436	105.720	109.110	103.739	107.916	106.412	103.715	103.213	50.707
74.000	316.833	307.140	313.705	314.398	312.369	314.135	310.793	315.496	311.366	312.440	315.186	315.902	103.070	112.787	106.030	104.598	106.603	105.314	108.704	103.691	107.725	106.484	103.786	103.834	35.592
75.000	316.737	306.639	313.658	314.302	312.583	314.087	311.032	315.544	311.819	312.703	315.090	315.329	102.927	113.169	105.863	104.455	106.532	105.290	108.418	103.810	107.654	106.556	103.691	103.762	26.614
76.000	316.690	306.090	313.610	314.589	312.464	314.231	311.819	315.353	311.628	312.488	314.875	315.472	103.142	113.622	105.815	104.455	106.603	104.980	107.964	103.715	107.487	106.603	103.643	103.667	37.803
77.000	316.332	305.350	313.705	314.302	312.631	314.398	311.987	315.472	312.010	312.440	315.186	315.377	103.094	113.909	105.601	104.288	106.818	104.884	107.367	103.667	107.224	106.866	103.715	103.762	52.422
78.000	316.618	305.803	314.255	314.971	312.774	314.469	312.321	315.257	311.796	311.915	315.090	315.305	102.975	114.291	105.529	104.431	106.914	104.908	106.938	103.595	107.152	106.890	103.739	103.739	47.278
79.000	316.499	305.254	314.159	314.923	312.201	314.493	312.655	315.568	312.416	312.130	314.995	315.520	103.166	114.649	105.410	104.502	106.938	104.789	106.579	103.643	107.081	107.033	103.810	103.762	30.449
80.000	316.881	304.944	314.541	314.875	312.321	314.899	313.228	315.305	312.464	312.010	315.257	315.400	102.951	115.031	105.338	104.264	106.938	104.550	106.150	103.667	106.890	107.033	103.834	103.715	28.554
81.000	316.690	304.514	314.183	314.589	312.297	315.066	313.586	315.305	312.369	311.939	315.019	315.735	103.237	115.102	105.314	104.359	107.200	104.622	105.839	103.667	106.699	107.009	103.762	103.906	44.526
82.000	316.785	304.419	314.159	314.732	312.130	314.756	313.896	315.424	312.727	311.963	315.042	315.735	103.189	115.293	105.290	104.144	107.105	104.574	105.481	103.762	106.651	107.224	103.929	103.834	53.279
83.000	316.690	304.371	314.278	314.565	311.819	314.804	314.183	315.210	312.416	311.963	315.090	315.830	103.022	115.365	105.195	104.168	107.200	104.431	105.266	103.762	106.579	107.248	103.786	103.786	40.691
84.000	316.928	304.037	314.111	314.732	311.987	315.210	314.255	315.496	312.822	311.796	314.995	315.448	102.998	115.771	105.171	104.192	107.176	104.622	105.314	103.739	106.603	107.176	103.762	103.906	27.065
85.000	316.379	304.490	314.660	314.947	311.939	314.875	314.135	315.400	312.727	311.796	314.851	315.400	103.022	115.556	105.266	104.407	107.152	104.502	105.004	103.691	106.532	107.224	103.834	103.858	33.878
86.000	316.618	304.108	314.446	314.660	311.652	314.684	314.613	315.568	312.894	311.963	315.138	315.257	103.166	115.604	105.123	104.192	107.224	104.383	105.123	103.834	106.365	107.248	103.739	103.691	49.805
87.000	317.310	303.726	313.944	314.613	312.225	314.947	314.995	315.568	313.419	311.987	314.804	315.090	103.070	115.795	105.243	104.216	107.296	104.383	104.884	103.595	106.317	107.200	103.810	103.882	50.572
88.000	317.048	303.893	314.183	314.589	311.963	315.233	314.708	315.591	312.822	311.628	315.257	315.544	103.213	115.795	105.028	104.288	107.296	104.431	104.908	103.786	106.269	107.248	103.691	103.786	34.780
89.000	316.523	304.061	314.660	314.851	311.748	314.469	314.446	315.591	312.965	311.867	314.780	315.424	103.046	115.938	105.171	104.264	107.224	104.359	104.765	103.715	106.388	107.343	103.762	103.929	26.794
90.000	316.737	303.679	314.350	314.565	311.867	314.613	314.995	315.639	313.061	311.915	315.400	315.639	102.903	116.009	105.052	104.073	107.176	104.383	104.717	103.619	106.054	107.224	103.786	103.810	39.247
91.000	316.881	303.130	314.183	314.780	311.987	315.019	314.732	315.520	313.347	311.915	315.257	315.424	102.640	116.129	105.028	104.192	107.272	104.335	104.861	103.715	106.245	107.391	103.643	103.715	52.918
92.000	317.096	303.559	314.374	314.541	311.796	314.899	314.947	315.544	313.133	311.724	314.947	315.520	103.046	115.818	105.004	104.335	107.272	104.431	104.765	103.595	106.006	107.224	103.882	103.834	45.834
93.000	316.714	303.440	314.684	314.875	311.915	314.780	314.899	315.591	312.822	311.819	314.875	315.568	103.166	116.009	104.980	104.335	107.320	104.383	104.717	103.739	105.959	107.320	103.762	103.953	29.727
94.000	317.239	303.703	314.589	314.780	311.796	315.186	315.138	315.496	313.133	311.772	315.162	315.544	103.070	116.081	105.004	104.240	107.320	104.240	104.646	103.715	106.150	107.391	103.882	103.834	28.824
95.000	317.048	303.679	314.637	314.541	311.676	314.613	314.875	315.520	313.228	311.652	314.899	315.186	103.118	115.938	104.980	104.168	107.320	104.407	104.550	103.571	106.150	107.320	103.906	103.929	44.571
96.000	317.000	303.273	314.637	315.042	311.963	314.971	314.923	315.377	312.942	311.915	315.138	315.233	103.118	116.057	104.980	104.168	107.248	104.383	104.550	103.643	106.006	107.415	103.786	103.882	53.189
97.000	316.642	303.440	314.422	314.684	311.772	315.186	315.114	315.639	313.514	311.939	315.042	315.377	102.975	115.962	104.861	104.120	107.248	104.335	104.574	103.667	106.078	107.272	103.691	103.715	41.367
98.000	316.308	303.726	314.637	314.541	311.652	315.066	314.684	315.162	313.109	312.082	315.257	315.711	103.118	116.224	104.861	104.240	107.391	104.311	104.502	103.691	106.006	107.224	103.834	103.882	27.245
99.000	316.332	303.846	314.780	314.756	311.939	314.875	314.732	315.305	313.133	311.605	314.804	315.472	103.022	116.248	104.956	104.192	107.272	104.431	104.479	103.739	106.030	107.224	103.691	103.977	32.705
100.000	316.737	303.798	314.326	314.708	311.796	314.851	315.162	315.448	313.037	311.652	314.851	315.210	103.261	116.224	104.908	104.240	107.224	104.288	104.455	103.643	105.959	107.296	103.691	103.906	48.767
101.000	316.546	303.559	314.995	315.186	311.891	315.377	315.066	315.400	313.109	311.987	315.090	315.448	103.285	116.153	105.099	104.192	107.200	104.216	104.574	103.667	106.006	107.343	103.786	103.977	51.339
102.000	316.332	303.703	314.684	314.875	311.724	315.233	314.851	315.210	313.276	311.843	315.329	315.806	103.022	116.033	105.004	104.120	107.224	104.168	104.502	103.810	106.102	107.320	103.786	103.858	35.953
103.000	316.523	303.607	314.971	315.042	311.628	315.090	315.233	315.257	313.371	311.700	315.090	315.568	103.142	116.224	105.052	104.240	107.224	104.264	104.431	103.691	105.935	107.367	103.786	103.834	26.659
104.000	316.260	303.344	314.589	314.684	311.915	314.947	315.066	315.568	313.324	311.724	314.851	315.257	103.094	116.200	105.052	104.097	107.272	104.192	104.359	103.595	106.054	107.630	103.834	103.786	37.713
105.000	316.737	303.297	314.684	314.923	311.676	314.708	314.971	315.305	313.133	311.772	314.971	315.663	102.879	116.224	105.004	104.144	107.248	104.192	104.335	103.643	105.935	107.367	103.858	103.786	52.512
106.000	316.881	303.464	314.183	314.398	311.796	314.875	315.162	315.544	313.276	311.724	315.186	315.424	102.951	116.177	104.861	104.288	107.439	104.288	104.407	103.619	105.815	107.367	103.667	103.882	46.872
107.000	317.000	303.464	314.326	314.732	311.796	314.804	315.305	315.400	313.276	311.605	315.353	315.329	102.855	116.296	104.861	104.049	107.343	104.359	104.526	103.691	105.983	107.224	103.643	103.739	30.494
108.000	316.594	303.798	314.732	314.422	311.628	314.947	314.875	315.377	313.276	311.724	315.162	315.377	103.237	116.105	104.837	104.168	107.439	104.264	104.264	103.643	105.792	107.415	103.715	103.906	28.463
109.000	316.427	303.559	315.042	314.756	312.034	314.756	314.875	315.281	313.586	311.676	314.708	315.210	102.879	116.224	104.908	104.120	107.272	104.335	104.455	103.882	105.983	107.320	103.691	103.691	43.714
110.000	316.690	303.464	314.708	314.756	311.748	315.210	314.995	315.591	313.276	311.867	315.138	315.424	103.118	116.177	104.789	104.073	107.248	104.168	104.383	103.786	105.959	107.296	103.762	103.715	53.414
111.000	316.212	303.655	314.899	314.851	311.819	314.637	315.186	315.233	313.061	311.605	315.281	315.639	103.309	116.224	104.789	104.192	107.367	104.216	104.526	103.595	105.935	107.272	103.786	103.906	42.089
112.000	316.355	303.559	314.517	314.637	311.796	315.090	314.804	315.448	313.395	311.939	314.923	315.520	103.237	116.129	104.932	104.192	107.391	104.335	104.431	103.595	105.863	107.391	103.810	103.929	27.516
