-----------------------------------------------------
BloodHound 307 VOC Analyser V2017.1
RoboScientific Ltd 
Espace North
Wisbech Road
Littleport
Cambridgeshire, UK
CB6 1RA 
-----------------------------------------------------
Date = 04/02/2021
Time = 10:19:14
Data is protected by RoboScientific Limited
-----------------------------------------------------
Name of the experiment = "5449N"
-----------------------------------------------------
Repeat No. = 4/4
-----------------------------------------------------
Experimental Time (in sec) and Flow Profile :
-----------------------------------------------------
Baseline = 2.00
Absorb = 10.00
Pause = 1.00
Desorb = 5.00
Flush = 10.00
Wait = 5.00
Higher Flow (V) = 4.00
Medium Flow (V) = 3.00
Low Flow (V) = 1.00
-----------------------------------------------------
Total Profile Time = 33 in sec
-----------------------------------------------------
Acquired data point per second = 4
--------------------------------------------------
Total data point stored  = 112
-----------------------------------------------------
Acquired sensor responses from 24 sensors
-----------------------------------------------------

Data Points	 Sen-1	 Sen-2	 Sen-3	 Sen-4	 Sen-5	 Sen-6	 Sen-7	 Sen-8	 Sen-9	 Sen-10	 Sen-11	 Sen-12	 Sen-13	 Sen-14	 Sen-15	 Sen-16	 Sen-17	 Sen-18	 Sen-19	 Sen-20	 Sen-21	 Sen-22	 Sen-23	 Sen-24	Humidity (%r.h.)
0.000	316.928	303.917	314.708	314.947	311.939	315.114	315.424	315.615	313.562	311.676	314.995	315.520	102.998	115.866	104.956	104.025	107.272	104.097	104.240	103.619	105.863	107.320	103.762	103.858	41.322
1.000	316.618	303.917	314.398	314.804	311.748	314.947	315.377	315.830	313.586	311.772	315.329	315.520	102.879	115.723	104.837	104.120	107.296	104.335	104.264	103.595	105.648	107.248	103.643	103.786	26.568
2.000	316.928	304.228	314.875	314.995	312.034	315.138	315.186	315.854	313.514	311.700	315.186	315.448	103.166	115.723	104.861	104.216	107.224	104.192	104.240	103.715	105.792	107.272	103.810	103.834	37.803
3.000	316.475	304.156	314.374	315.305	311.891	314.995	315.090	315.377	313.252	311.772	315.329	315.496	103.166	115.771	104.932	104.240	107.105	104.168	104.097	103.643	105.839	107.391	103.810	103.929	53.324
4.000	316.737	303.726	314.613	314.851	312.082	315.305	315.353	315.544	313.634	311.819	315.281	315.329	103.142	115.627	104.789	104.097	107.176	104.073	104.264	103.691	105.792	107.272	103.524	103.858	42.360
5.000	316.523	303.965	314.899	314.971	312.058	315.019	315.066	315.281	313.395	311.867	315.305	315.687	103.261	115.675	104.765	104.049	107.176	104.264	104.288	103.619	105.768	107.272	103.739	103.906	26.704
6.000	316.308	304.252	314.780	314.947	311.628	314.851	315.066	315.305	313.443	311.987	315.162	315.639	103.261	115.675	104.741	104.049	107.248	104.192	104.288	103.691	105.720	107.272	103.548	103.977	38.164
7.000	316.332	304.275	314.780	314.995	311.796	314.947	315.114	315.472	313.395	311.963	315.210	315.305	103.213	115.651	104.717	104.001	107.176	104.288	104.240	103.739	105.768	107.224	103.667	103.858	53.189
8.000	316.475	304.323	314.947	315.019	311.963	314.971	315.257	315.639	313.300	311.796	315.162	315.544	103.070	115.627	104.765	104.097	107.152	104.192	104.216	103.595	105.744	107.272	103.667	103.929	41.232
9.000	316.618	304.299	314.398	314.851	311.987	315.162	315.042	315.544	313.443	311.605	314.804	315.400	103.022	115.627	104.861	104.192	107.272	104.240	104.120	103.595	105.792	107.296	103.739	103.977	26.433
10.000	316.379	304.753	314.732	314.851	312.225	315.138	315.066	315.353	313.300	312.010	315.329	315.830	103.189	115.317	104.693	104.192	107.152	104.168	104.335	103.643	105.577	107.105	103.715	103.834	38.435
11.000	316.379	303.989	314.923	315.114	311.843	314.828	315.114	315.210	313.228	312.082	315.186	315.496	103.046	115.484	104.693	103.977	107.057	104.288	104.479	103.762	105.720	107.296	103.428	103.691	53.234
12.000	316.976	302.246	314.231	314.637	311.294	314.875	315.138	315.472	312.894	311.485	315.090	315.090	103.094	117.585	105.219	104.216	107.654	104.359	104.383	103.715	106.579	107.797	103.786	103.906	41.864
13.000	316.905	299.095	314.016	314.302	310.220	314.732	314.923	315.568	311.843	310.101	314.660	315.281	103.022	119.925	105.362	104.479	108.585	104.813	104.765	103.786	107.415	109.015	103.977	104.359	26.614
14.000	316.332	296.588	313.467	314.231	309.623	314.207	314.207	314.923	310.459	309.002	314.255	314.565	102.903	122.885	105.696	104.765	109.444	105.147	105.195	104.025	108.609	109.946	104.216	104.861	38.299
15.000	316.857	293.294	313.228	313.634	308.668	313.896	313.443	314.875	308.955	307.403	313.419	313.825	103.022	126.036	106.102	105.123	110.328	105.362	105.768	104.168	110.017	111.330	104.908	105.314	53.234
16.000	316.499	290.286	312.870	313.371	307.642	313.324	312.440	314.899	307.594	306.114	313.109	313.133	102.879	129.474	106.747	105.362	111.283	105.983	107.057	104.502	111.879	113.001	105.744	106.102	41.819
17.000	316.499	286.657	312.321	313.371	306.448	312.249	310.530	314.374	305.493	304.729	311.987	312.464	102.855	133.270	107.081	105.672	112.643	106.723	108.537	104.765	114.076	114.410	106.532	106.985	27.020
18.000	316.570	282.742	311.724	312.512	305.159	311.533	308.597	314.016	303.153	302.939	310.936	310.936	102.736	136.923	107.415	106.150	113.622	107.582	110.590	105.219	116.105	115.866	107.654	107.988	38.299
19.000	316.690	278.755	311.438	312.560	304.037	310.506	306.400	313.467	300.289	300.766	309.337	309.862	103.166	141.077	108.131	106.436	114.816	108.513	112.954	105.696	118.994	118.110	109.277	109.516	52.422
20.000	316.833	275.150	310.769	312.321	303.034	309.671	304.323	312.798	297.543	298.761	307.618	308.191	103.118	144.586	108.728	106.961	116.153	109.707	115.389	106.126	121.739	119.877	111.044	111.139	41.638
21.000	316.905	271.020	310.268	311.366	301.649	307.952	301.076	312.416	294.392	297.161	305.875	306.448	103.070	148.764	109.301	107.487	117.442	111.092	118.421	106.866	125.034	122.049	113.169	112.954	27.606
22.000	316.809	267.319	309.528	310.841	300.718	306.830	297.973	311.557	290.978	294.798	303.368	304.156	103.094	152.178	109.778	107.869	118.492	112.500	121.309	107.678	128.161	123.912	114.792	114.529	38.029
23.000	316.499	263.667	308.692	310.578	299.381	304.992	294.774	310.459	287.445	292.912	301.244	302.580	103.070	155.950	110.614	108.394	119.567	113.980	124.747	108.513	131.575	126.227	117.466	116.606	51.384
24.000	316.379	260.396	308.262	309.957	298.307	303.822	291.837	309.719	284.365	290.500	298.379	300.623	103.142	159.244	111.092	108.991	120.569	115.460	127.660	109.611	135.228	128.448	120.283	118.779	42.676
25.000	316.881	257.436	307.785	309.313	297.137	301.721	288.591	308.644	281.118	289.140	296.087	298.259	102.975	162.610	111.855	109.588	121.954	117.394	130.859	110.614	138.570	130.525	122.981	120.975	28.869
26.000	316.594	254.523	306.878	308.215	295.848	299.692	285.201	307.594	277.895	286.728	293.150	295.944	103.118	165.499	112.548	110.447	122.837	119.041	134.034	111.402	141.244	132.482	125.965	123.339	37.171
27.000	316.403	251.849	306.472	307.522	295.084	297.854	282.097	306.329	274.744	284.413	289.928	293.700	103.118	168.101	113.049	110.996	124.198	121.405	137.567	112.930	144.658	134.440	128.495	125.416	50.030
28.000	316.546	249.390	305.994	307.260	294.392	295.872	278.922	305.087	272.046	282.551	287.110	291.336	102.831	170.536	113.813	111.927	125.081	123.482	140.241	113.885	147.379	136.350	131.527	127.660	42.586
29.000	316.164	247.075	305.230	305.947	292.721	293.628	275.890	303.655	268.895	280.927	284.604	289.498	102.855	173.258	114.577	112.691	126.180	125.487	143.703	115.436	150.483	138.379	134.464	130.095	30.178
30.000	316.761	244.544	304.132	305.517	291.790	291.408	272.834	302.509	266.269	278.635	281.834	286.991	103.022	175.359	115.055	113.336	127.206	127.731	146.400	116.582	153.085	140.074	136.923	132.267	36.675
31.000	316.403	242.515	303.655	304.634	290.739	289.068	269.826	300.885	263.834	277.370	278.946	284.819	102.951	177.388	116.033	114.386	128.280	130.047	149.767	118.230	155.448	141.888	139.573	134.297	48.632
32.000	317.119	240.629	302.389	303.726	289.856	287.230	267.296	299.668	261.399	275.603	276.702	282.575	102.975	179.274	116.941	115.341	129.474	132.100	152.369	119.590	158.361	143.774	142.103	136.517	42.721
33.000	316.833	238.958	301.530	302.652	288.710	285.224	264.455	297.949	258.964	273.956	274.099	280.641	103.046	181.279	117.490	116.200	130.596	134.488	155.401	121.214	160.653	145.565	144.872	138.498	31.531
34.000	316.833	237.215	300.909	301.626	287.230	282.885	261.709	296.445	256.624	272.452	271.545	278.516	103.189	182.998	118.588	117.036	131.670	136.374	157.931	122.742	162.587	146.973	147.021	140.432	36.765
35.000	317.072	235.401	300.002	300.742	285.917	280.760	258.940	295.180	254.762	270.351	269.349	276.606	103.070	184.598	119.686	118.110	132.840	138.379	160.581	124.174	164.998	148.740	149.528	142.509	47.278
36.000	317.048	233.920	299.334	299.740	285.296	278.922	256.696	293.389	252.613	268.943	267.176	274.792	102.831	186.030	120.354	119.041	134.177	140.265	162.992	125.893	167.146	150.459	151.581	144.061	42.811
37.000	316.809	232.918	297.854	298.665	283.744	277.179	254.452	292.100	250.942	267.630	264.908	273.144	102.927	187.534	121.524	120.187	135.729	142.461	165.451	127.373	169.056	151.796	153.801	146.305	32.524
38.000	316.809	231.390	296.612	297.519	282.551	275.293	252.279	290.142	248.650	265.959	262.951	271.354	102.998	188.919	122.646	121.357	136.708	143.941	167.648	128.686	170.775	153.276	155.902	147.881	37.262
39.000	316.976	230.172	295.180	296.445	281.333	273.789	249.820	288.758	247.099	264.550	260.897	269.134	102.951	190.160	123.912	122.384	137.901	145.708	169.414	130.381	172.709	154.684	157.836	149.647	46.466
40.000	316.427	229.313	294.559	295.490	280.044	271.855	248.340	287.349	244.950	262.903	259.083	268.107	103.189	191.521	125.081	123.506	139.238	147.546	171.730	132.100	174.332	155.878	159.674	151.605	41.999
41.000	316.809	228.191	293.222	294.225	278.492	270.041	246.144	285.702	243.565	261.637	257.054	266.197	102.855	192.715	126.180	124.461	140.360	149.194	173.377	133.867	176.003	157.502	161.679	153.085	33.472
42.000	316.451	226.997	292.339	292.936	277.036	268.370	244.616	284.198	241.894	260.468	255.526	264.813	103.189	193.527	127.397	125.869	141.817	151.103	175.096	135.156	177.555	158.910	163.446	154.661	37.577
43.000	316.594	225.660	290.882	291.957	275.914	266.770	243.159	282.503	240.414	258.844	254.141	263.213	102.903	194.625	128.686	126.920	143.225	152.727	176.696	136.851	179.131	159.937	164.998	155.974	45.067
44.000	316.857	225.254	289.689	290.835	275.198	265.195	241.512	281.047	239.196	258.343	252.446	261.685	102.903	195.460	129.975	128.280	144.610	154.350	178.319	138.116	180.468	161.083	166.717	157.836	42.676
45.000	316.737	224.371	288.519	289.760	273.503	263.619	240.080	279.781	238.027	256.958	250.894	260.181	103.022	196.248	131.360	129.570	145.947	155.830	179.728	139.644	181.757	162.324	168.268	159.173	34.735
46.000	316.881	223.774	286.848	288.280	272.213	261.709	238.576	278.397	236.833	256.170	249.486	258.844	102.998	196.917	132.697	130.692	147.427	157.430	181.160	140.790	183.022	163.207	169.629	160.414	37.487
47.000	316.499	222.795	285.487	286.967	270.638	260.253	237.143	276.606	235.806	254.475	247.433	257.412	102.903	197.370	133.891	132.052	148.931	159.077	182.258	142.270	184.240	164.520	170.895	161.799	44.300
48.000	316.714	222.485	284.126	285.344	269.611	258.964	236.069	275.460	234.207	253.902	246.788	256.720	102.784	198.277	135.347	133.461	150.363	160.724	183.619	143.846	185.338	165.618	172.470	162.969	42.586
49.000	316.928	221.912	282.837	284.198	267.916	257.698	235.472	274.243	233.395	252.876	245.236	255.120	103.118	198.540	136.899	134.511	151.485	162.014	184.526	145.231	186.388	166.454	173.497	164.377	35.457
50.000	316.212	222.270	282.789	284.317	267.319	257.054	235.496	274.076	233.753	252.685	245.690	255.812	103.142	198.468	137.281	134.750	151.796	162.085	184.574	145.159	186.341	166.359	173.688	164.258	37.713
51.000	316.546	222.724	283.147	284.771	267.892	257.818	235.854	274.314	234.446	252.780	245.833	255.621	102.927	198.206	137.137	134.368	151.629	161.584	184.240	144.825	186.126	165.929	173.234	163.971	44.075
52.000	316.761	222.867	282.384	284.389	267.319	257.794	235.783	274.434	234.088	253.449	246.000	255.860	102.927	198.086	136.803	134.201	151.485	161.393	183.953	144.896	185.792	166.168	173.091	163.661	42.947
53.000	316.332	222.700	282.742	285.057	267.582	258.104	236.308	274.481	233.873	253.425	245.738	255.884	102.998	197.919	136.970	134.249	151.724	161.441	184.025	144.681	185.768	166.000	173.115	163.613	35.637
54.000	317.096	222.461	281.763	284.102	266.699	256.982	234.804	273.622	233.037	252.494	244.950	254.547	102.784	198.468	137.854	135.156	152.631	162.634	184.980	145.684	186.746	166.693	174.022	164.687	37.126
55.000	316.857	231.629	284.222	286.490	271.306	262.545	243.518	277.298	241.846	259.393	252.231	262.401	102.951	188.131	135.156	132.482	147.546	156.523	175.884	141.673	177.149	159.531	166.024	156.332	43.894
56.000	317.119	248.650	289.999	291.623	279.734	272.572	257.436	284.413	256.481	270.853	265.171	275.436	102.879	171.324	129.379	127.469	139.764	146.949	162.109	134.535	163.040	148.119	153.348	143.130	43.669
57.000	316.785	266.341	296.326	297.519	288.853	283.601	272.524	292.601	272.118	282.885	279.113	288.734	102.998	154.684	123.768	121.906	130.954	136.302	147.952	127.349	148.477	136.946	141.077	131.169	33.652
58.000	317.215	281.405	301.960	302.891	296.875	293.700	286.203	299.907	285.606	292.936	290.405	299.167	102.736	139.668	117.657	116.606	123.315	127.111	135.108	119.805	135.013	126.705	128.901	120.140	33.246
59.000	316.976	291.217	305.039	305.875	302.270	299.883	294.368	304.777	293.914	299.835	298.021	305.708	102.951	129.140	113.932	112.715	117.251	119.925	125.654	114.792	125.869	119.423	120.498	113.431	47.955
60.000	316.546	298.021	308.406	308.501	305.875	303.893	300.002	307.952	299.835	304.777	303.774	309.623	103.046	122.121	111.187	110.184	113.598	115.532	119.805	111.426	119.901	114.673	115.198	109.373	47.504
61.000	316.905	302.103	309.814	310.435	308.024	306.663	303.726	310.435	303.679	307.475	307.093	311.891	102.975	118.349	109.540	108.728	111.402	112.882	116.511	109.373	116.439	111.975	111.879	107.439	30.674
62.000	317.024	304.634	311.008	311.796	309.504	308.549	306.257	311.867	306.018	309.146	309.384	312.965	103.142	115.556	108.394	107.725	109.993	111.211	113.813	107.701	113.765	109.802	109.397	106.054	30.990
63.000	316.403	306.185	312.297	311.819	310.506	309.528	307.307	312.631	307.689	310.626	310.960	314.207	103.261	113.741	107.725	107.176	108.991	109.683	112.190	106.651	111.927	108.489	107.654	105.171	49.038
64.000	316.952	307.546	311.963	312.536	311.103	310.292	308.310	313.586	308.979	311.342	312.225	314.493	103.070	112.715	107.224	106.579	108.394	108.824	111.211	105.911	110.996	107.773	106.508	104.670	49.444
65.000	316.475	308.716	312.918	312.965	311.414	310.960	309.002	313.801	309.599	312.010	313.109	314.995	103.166	112.046	107.033	106.245	107.869	108.107	110.638	105.290	110.160	107.224	105.863	104.479	31.486
66.000	317.096	308.620	312.345	313.013	311.891	311.676	309.719	314.278	309.695	312.225	313.658	314.947	103.070	111.497	106.866	105.911	107.439	107.582	110.017	105.028	109.683	106.985	105.123	104.216	29.366
67.000	316.546	308.764	312.942	313.347	312.178	311.867	309.742	314.469	309.957	312.631	314.326	315.400	103.213	111.330	106.651	105.720	107.176	107.391	109.826	104.526	109.277	106.579	104.646	104.001	47.684
68.000	316.714	308.859	312.918	313.252	312.130	312.225	310.029	314.995	310.483	312.679	314.255	315.472	103.046	111.235	106.699	105.625	107.129	107.081	109.420	104.168	108.919	106.460	104.550	104.001	50.707
69.000	316.570	308.716	312.846	313.729	312.631	312.870	310.148	315.233	310.936	312.583	314.541	315.663	103.070	111.163	106.532	105.529	107.033	106.794	109.420	104.192	108.824	106.293	104.049	103.906	32.299
70.000	316.785	308.931	312.774	313.538	312.345	312.822	309.933	315.377	311.008	313.109	314.923	315.448	103.237	111.235	106.508	105.171	106.842	106.699	109.301	103.929	108.346	106.126	103.834	103.834	28.418
71.000	317.024	308.644	313.276	314.111	312.560	312.798	309.886	315.448	311.103	312.751	315.019	315.615	102.975	111.569	106.388	105.028	106.579	106.269	109.253	103.810	108.107	106.221	103.786	103.715	46.782
72.000	316.570	308.191	313.562	314.398	312.918	313.276	310.124	315.305	311.247	312.965	314.947	315.305	103.142	111.569	106.412	105.004	106.532	105.935	109.062	103.691	107.964	106.317	103.762	103.810	51.339
73.000	316.260	308.191	313.586	314.541	312.798	313.443	310.315	315.162	311.223	312.583	314.804	315.902	103.094	112.046	106.317	104.861	106.460	105.625	108.824	103.595	107.773	106.460	103.834	103.333	33.201
74.000	316.475	307.856	313.228	314.159	312.583	313.705	310.721	315.448	311.652	312.679	315.186	315.639	102.975	112.357	106.006	104.789	106.436	105.410	108.800	103.786	107.749	106.365	103.643	103.762	28.193
75.000	316.618	306.925	313.467	314.732	312.918	314.159	310.865	315.448	311.461	312.488	315.400	315.568	102.784	112.643	105.839	104.431	106.388	105.243	108.298	103.691	107.415	106.484	103.643	103.786	46.060
76.000	316.212	306.711	313.658	314.493	312.560	313.896	311.318	315.400	311.867	312.560	315.377	315.329	103.118	112.978	105.792	104.455	106.508	105.219	108.060	103.691	107.272	106.675	103.643	103.858	51.339
77.000	316.857	306.496	313.610	314.111	312.369	314.255	312.010	315.615	311.891	312.082	315.162	315.472	102.998	113.383	105.648	104.431	106.532	104.932	107.534	103.667	107.272	106.723	103.571	103.810	33.020
78.000	316.594	305.875	313.944	314.302	312.536	314.231	312.440	315.615	312.560	312.297	315.162	315.472	103.118	113.694	105.505	104.407	106.770	104.789	107.129	103.524	107.057	106.747	103.619	103.858	28.418
79.000	316.618	306.424	314.135	314.971	312.321	314.231	313.013	315.591	312.106	312.034	314.947	315.210	102.879	114.076	105.434	104.192	106.627	104.741	106.603	103.691	107.200	106.938	103.571	103.643	46.782
80.000	316.809	305.589	314.302	314.851	312.416	314.637	313.395	315.353	312.512	312.082	314.971	315.186	102.951	114.362	105.338	104.383	106.890	104.717	106.269	103.548	106.938	107.009	103.595	103.858	51.790
81.000	316.690	304.872	314.660	314.971	312.464	314.828	313.538	315.448	312.297	312.106	314.947	315.424	103.118	114.744	105.290	104.120	106.723	104.717	105.983	103.834	106.842	107.152	103.643	103.715	34.329
82.000	316.618	305.016	314.398	315.305	312.345	314.637	313.801	315.353	312.345	312.249	315.019	315.233	103.070	114.959	105.290	104.192	106.938	104.455	105.625	103.810	106.938	107.272	103.715	103.715	27.651
83.000	316.881	304.753	314.326	314.923	312.154	314.684	314.159	315.400	312.607	311.891	315.019	315.353	102.998	115.102	105.266	104.049	106.914	104.455	105.457	103.643	106.484	107.105	103.810	103.786	44.526
84.000	316.499	304.705	314.398	314.684	312.034	315.138	314.135	315.520	312.512	311.819	314.923	315.520	102.760	114.935	105.219	104.144	107.033	104.359	105.290	103.739	106.627	107.272	103.715	103.691	52.331
85.000	316.785	304.538	314.326	314.637	311.891	314.756	314.469	315.544	313.061	311.819	315.090	315.448	102.903	115.246	105.147	104.288	107.152	104.526	105.171	103.571	106.484	107.152	103.762	103.953	35.547
86.000	316.546	304.562	314.637	314.732	311.891	314.971	314.541	315.663	312.774	311.772	314.923	315.353	102.736	115.293	105.075	104.001	107.129	104.359	104.980	103.715	106.556	107.272	103.643	103.691	27.606
87.000	316.976	304.299	314.278	315.042	312.058	315.066	314.589	315.329	312.894	311.843	315.090	315.305	102.903	115.389	104.980	104.168	107.105	104.502	105.052	103.619	106.221	107.152	103.595	103.858	45.112
88.000	316.188	304.371	314.469	314.804	311.843	314.565	314.446	315.305	312.703	311.963	315.400	315.496	103.094	115.413	105.099	104.025	106.938	104.288	104.861	103.715	106.365	107.224	103.619	103.762	52.151
89.000	316.928	304.466	314.135	314.708	312.058	314.923	314.756	315.759	313.204	311.843	315.042	315.257	103.094	115.436	104.980	104.049	107.248	104.502	104.908	103.643	106.365	107.176	103.571	103.810	34.058
90.000	316.403	304.299	314.971	315.114	312.058	314.708	314.469	315.377	312.679	311.748	314.923	315.472	103.022	115.484	105.004	104.097	107.176	104.335	104.813	103.691	106.150	107.200	103.548	103.882	27.516
91.000	316.761	303.893	314.446	315.138	312.082	314.804	314.756	315.305	312.727	311.724	314.923	315.520	103.309	115.484	104.741	104.168	107.105	104.383	104.765	103.595	106.102	107.224	103.739	103.977	44.571
92.000	316.355	304.180	314.541	314.828	312.201	314.780	314.637	315.377	312.989	312.058	314.995	315.448	102.975	115.604	105.004	104.216	107.176	104.335	104.622	103.691	106.197	107.248	103.643	103.715	52.512
93.000	316.355	304.347	314.517	314.828	311.939	314.804	314.660	315.448	312.989	311.724	314.851	315.281	102.855	115.580	104.956	104.192	107.367	104.288	104.550	103.667	106.054	107.272	103.643	103.786	36.314
94.000	316.332	304.084	314.637	314.613	311.819	315.138	314.828	315.520	312.846	311.533	315.042	315.639	103.142	115.723	104.861	104.120	107.129	104.216	104.455	103.691	106.078	107.343	103.619	103.834	27.381
95.000	316.737	304.013	314.804	315.257	311.987	315.257	314.780	315.257	312.846	311.581	314.828	315.353	103.022	115.604	104.908	104.144	107.224	104.168	104.526	103.691	105.959	107.320	103.643	103.810	43.804
96.000	316.451	303.941	314.469	315.233	311.963	315.257	314.899	315.233	312.774	311.581	315.257	315.854	103.118	115.604	104.908	104.216	107.248	104.288	104.550	103.500	106.150	107.320	103.715	103.691	52.738
97.000	316.594	303.464	314.732	315.066	311.939	314.971	315.066	315.663	313.395	311.915	314.947	315.400	103.022	115.604	104.908	104.073	107.105	104.216	104.431	103.595	106.030	107.248	103.691	103.906	36.224
98.000	316.475	303.941	314.804	314.947	312.010	314.828	314.732	315.448	313.061	311.581	315.257	315.377	102.998	115.651	104.813	104.097	107.081	104.288	104.502	103.571	106.030	107.224	103.691	103.762	27.110
99.000	316.117	303.917	314.613	315.114	311.700	314.804	314.732	315.353	313.180	312.034	315.138	315.233	102.807	115.627	104.956	104.073	107.224	104.144	104.526	103.667	106.030	107.224	103.667	103.858	43.578
100.000	316.761	304.013	314.565	314.493	311.748	315.114	315.162	315.424	313.013	311.796	315.377	315.496	102.903	115.699	104.908	104.001	107.200	104.288	104.550	103.643	105.983	107.224	103.667	103.882	52.873
101.000	316.976	304.514	314.493	315.257	312.201	315.305	314.923	315.138	313.061	311.867	315.329	315.496	103.070	115.604	105.028	104.144	107.272	104.502	104.455	103.786	106.030	107.320	103.715	103.739	36.630
102.000	316.666	303.965	314.565	314.660	312.058	314.923	315.019	315.472	313.347	312.249	315.114	315.305	103.333	115.723	104.861	104.001	107.248	104.288	104.407	103.643	105.959	107.248	103.762	103.786	27.200
103.000	316.833	304.156	314.589	315.210	311.963	315.353	315.114	315.759	313.324	311.557	314.875	315.520	103.142	115.866	104.813	104.073	107.176	104.192	104.407	103.715	105.911	107.343	103.691	103.739	42.766
104.000	316.594	304.061	314.446	314.923	311.987	315.019	315.329	315.687	313.061	311.724	315.019	315.639	102.664	115.651	104.861	104.097	107.224	104.526	104.455	103.786	105.911	107.200	103.595	103.739	52.828
105.000	316.952	303.631	314.278	314.732	311.963	314.971	315.186	315.735	313.491	311.843	314.971	315.520	103.094	115.627	104.670	104.025	107.200	104.335	104.455	103.691	105.935	107.296	103.834	103.858	37.352
106.000	316.570	303.941	314.255	314.541	311.867	314.995	314.923	315.520	313.682	311.796	315.281	315.711	102.807	115.604	104.741	103.882	107.176	104.335	104.455	103.786	105.887	107.224	103.524	103.882	26.794
107.000	316.642	304.061	314.422	315.042	311.676	314.947	315.233	315.329	313.133	311.987	315.019	315.042	103.046	115.842	104.861	104.192	107.200	104.264	104.383	103.643	105.911	107.248	103.691	103.977	42.450
108.000	316.546	304.061	314.780	314.995	311.724	314.732	314.923	315.305	312.894	311.676	315.281	315.591	103.070	115.651	104.646	103.977	107.105	104.264	104.407	103.548	105.839	107.296	103.691	103.834	53.008
109.000	316.570	304.180	314.899	314.947	312.082	314.947	315.066	315.305	312.894	311.485	314.899	315.424	103.118	115.818	104.884	104.073	107.224	104.168	104.431	103.667	105.911	107.248	103.571	103.762	38.164
110.000	316.881	304.252	314.589	314.875	311.867	315.090	315.353	315.520	313.156	311.987	315.138	315.210	103.166	115.699	104.837	104.168	107.152	104.073	104.359	103.715	106.054	107.558	103.882	103.762	26.614
111.000	316.642	304.395	314.517	314.947	312.010	314.995	315.162	315.568	313.156	311.628	315.186	315.568	103.213	115.556	104.837	104.097	107.176	104.311	104.311	103.739	105.935	107.224	103.691	103.810	40.961
112.000	316.785	303.583	314.255	314.851	312.130	314.947	315.066	315.162	313.133	311.533	314.899	315.759	103.046	115.723	104.884	104.001	107.200	104.192	104.311	103.548	105.792	107.176	103.619	103.882	53.324
