-----------------------------------------------------
BloodHound 307 VOC Analyser V2017.1
RoboScientific Ltd 
Espace North
Wisbech Road
Littleport
Cambridgeshire, UK
CB6 1RA 
-----------------------------------------------------
Date = 13/04/2022
Time = 12:17:41
Data is protected by RoboScientific Limited
-----------------------------------------------------
Name of the experiment = "08b_Day 32"
-----------------------------------------------------
Repeat No. = 1/4
-----------------------------------------------------
Experimental Time (in sec) and Flow Profile :
-----------------------------------------------------
Baseline = 2.00
Absorb = 4.00
Pause = 1.00
Desorb = 5.00
Flush = 20.00
Wait = 5.00
Higher Flow (V) = 4.00
Medium Flow (V) = 3.00
Low Flow (V) = 1.00
-----------------------------------------------------
Total Profile Time = 37 in sec
-----------------------------------------------------
Acquired data point per second = 4
--------------------------------------------------
Total data point stored  = 128
-----------------------------------------------------
Acquired sensor responses from 24 sensors
-----------------------------------------------------

Data Points	 Sen-1	 Sen-2	 Sen-3	 Sen-4	 Sen-5	 Sen-6	 Sen-7	 Sen-8	 Sen-9	 Sen-10	 Sen-11	 Sen-12	 Sen-13	 Sen-14	 Sen-15	 Sen-16	 Sen-17	 Sen-18	 Sen-19	 Sen-20	 Sen-21	 Sen-22	 Sen-23	 Sen-24	Humidity (%r.h.)
0.000	308.644	279.471	255.025	303.153	313.037	314.541	314.995	301.124	289.832	305.947	231.891	217.448	111.020	140.360	164.353	115.580	105.959	104.407	104.216	117.704	129.402	113.025	186.245	202.336	40.826
1.000	308.549	279.829	255.192	303.249	312.703	314.469	315.138	301.339	289.880	306.209	232.130	217.830	110.590	140.169	164.210	115.699	105.983	104.359	103.977	117.537	129.211	112.906	186.317	202.240	40.916
2.000	308.668	279.638	255.144	303.607	313.109	314.851	315.090	301.172	289.641	305.970	232.082	217.686	110.662	139.835	163.756	115.413	105.648	104.240	104.216	117.681	129.211	112.763	186.150	202.145	40.149
3.000	308.788	280.187	255.478	303.273	312.870	314.637	314.923	301.244	289.689	306.209	232.058	217.830	110.733	139.740	163.518	115.269	105.720	104.288	104.216	117.561	129.379	112.763	186.197	202.097	40.285
4.000	308.883	280.139	255.884	303.153	313.061	314.684	315.400	301.721	289.689	306.352	232.154	218.188	110.686	139.525	163.207	115.413	105.815	104.311	104.144	117.537	129.235	112.739	186.269	201.906	40.871
5.000	308.692	280.044	256.314	303.392	313.133	314.589	315.090	301.220	289.784	306.329	231.963	218.307	110.662	139.382	162.992	115.269	105.696	104.288	104.168	117.585	129.307	112.691	186.174	201.763	40.916
6.000	308.835	280.307	256.338	303.416	313.371	314.899	315.257	301.626	289.641	306.305	232.034	218.427	110.423	139.382	162.754	115.222	105.768	104.335	104.120	117.561	129.379	112.667	186.293	201.811	40.104
7.000	309.122	280.784	256.767	303.583	313.085	314.637	315.042	301.244	289.760	306.567	232.154	218.140	110.471	139.095	162.539	115.365	105.863	104.288	104.168	117.418	129.283	112.667	186.293	201.691	40.285
8.000	308.764	280.545	256.815	303.679	313.133	314.613	315.066	301.435	289.617	306.185	231.843	218.236	110.662	138.952	162.396	115.246	105.720	104.383	104.073	117.466	129.474	112.787	186.126	201.596	40.826
9.000	309.265	280.426	256.839	303.774	313.371	314.851	315.162	301.148	289.498	306.305	231.867	218.283	110.351	139.023	162.396	115.102	105.720	104.288	104.120	117.466	129.331	112.619	186.269	201.500	40.871
10.000	309.026	279.925	257.221	303.153	313.180	314.780	315.162	301.458	289.904	306.161	231.700	217.782	110.805	139.692	162.181	115.246	105.744	104.311	104.097	117.537	129.379	112.739	186.245	202.049	40.239
11.000	307.284	274.625	256.385	303.201	312.918	314.422	315.281	301.244	289.856	305.111	231.438	244.043	112.118	144.777	162.587	115.413	105.792	104.383	104.097	117.704	129.188	113.646	186.699	173.425	40.239
12.000	291.790	236.594	253.234	301.912	312.536	314.183	314.971	299.668	290.262	296.946	230.387	283.171	125.702	180.348	165.547	116.654	106.078	104.693	104.335	118.970	128.543	120.498	187.797	137.806	38.119
13.000	252.876	274.744	245.117	299.381	312.178	313.514	314.231	297.161	290.596	264.765	229.337	302.533	167.600	145.350	174.523	119.256	106.699	105.314	104.550	121.715	128.185	154.756	188.943	118.468	35.637
14.000	226.114	296.708	233.347	295.156	311.247	312.583	314.087	293.461	290.811	232.273	228.119	311.843	192.619	121.285	186.746	123.744	107.630	106.197	104.813	125.320	127.994	186.961	189.659	108.012	48.406
15.000	246.740	310.292	231.843	289.450	310.148	311.939	313.825	289.164	290.596	224.467	227.737	318.623	170.560	107.964	187.009	128.710	108.489	106.961	105.243	129.426	128.209	193.336	190.471	102.067	50.030
16.000	267.296	317.788	243.016	281.930	308.883	310.602	312.918	284.890	290.238	239.602	227.379	322.801	151.915	100.898	173.330	136.397	109.659	108.012	105.959	133.485	128.639	178.892	191.282	98.439	35.006
17.000	284.031	322.873	254.093	274.147	307.403	309.050	312.154	280.903	289.426	252.255	226.496	325.260	135.848	96.314	161.083	145.326	111.497	109.611	106.842	137.997	129.307	166.430	191.593	95.263	30.313
18.000	295.944	326.836	263.333	264.502	305.469	307.498	311.438	275.985	288.710	263.595	225.660	326.621	123.315	93.354	149.814	154.446	113.049	111.139	107.725	142.939	130.405	155.329	191.927	93.258	46.195
19.000	305.016	328.435	270.733	255.096	303.440	305.827	310.124	270.900	287.564	272.190	225.612	328.865	113.503	90.560	141.697	163.136	115.055	112.810	108.919	147.737	131.217	146.018	192.404	91.969	53.640
20.000	312.512	330.226	276.367	246.955	300.885	303.679	308.549	264.980	286.538	280.044	225.589	329.748	106.245	89.128	134.416	171.563	117.728	115.222	110.686	153.658	132.052	137.496	192.858	91.014	38.841
21.000	317.310	331.634	281.429	239.244	298.212	301.411	306.830	259.489	285.415	286.919	224.634	329.939	100.969	88.316	129.880	179.370	120.331	117.370	112.572	159.913	133.365	131.408	192.858	90.178	28.193
22.000	321.918	332.446	285.439	232.440	295.586	298.546	304.084	252.661	284.413	292.649	225.230	330.799	97.245	86.669	124.938	187.128	123.195	119.996	114.887	166.550	134.249	125.607	193.312	89.152	40.871
23.000	325.260	332.852	288.853	225.947	292.625	295.633	300.909	246.669	283.124	296.755	224.825	331.825	94.189	86.597	121.763	193.240	126.681	123.243	117.967	172.613	135.514	120.808	193.025	88.961	54.542
24.000	326.740	333.688	291.073	221.960	288.662	292.267	297.519	240.653	282.169	300.575	225.207	331.825	92.781	84.950	119.041	197.227	130.214	126.323	121.142	178.844	136.779	117.346	193.336	88.698	43.894
25.000	327.098	333.855	294.153	223.941	285.033	288.805	293.532	235.114	280.689	302.915	224.968	333.043	90.608	85.356	117.537	194.816	134.201	129.904	125.248	184.646	137.949	115.389	193.646	88.483	28.869
26.000	328.984	334.475	294.822	224.180	282.431	287.803	290.978	233.873	280.498	302.843	225.350	331.515	90.823	84.902	116.750	194.219	136.779	131.050	128.185	185.911	138.260	115.627	193.789	88.746	35.322
27.000	329.414	334.356	295.204	223.559	281.596	288.042	290.214	234.851	280.784	302.175	224.562	332.255	90.274	84.998	116.320	194.625	137.615	130.787	128.925	185.171	138.283	116.344	193.646	88.436	52.738
28.000	329.510	334.380	295.586	223.130	281.094	288.495	289.928	235.759	280.832	301.602	225.135	331.945	90.441	84.950	116.296	195.389	137.925	130.381	129.283	184.335	137.997	117.084	194.004	88.531	48.857
29.000	330.178	334.499	295.800	222.939	280.879	288.591	290.310	236.475	281.429	301.053	224.777	331.921	91.157	84.878	116.941	195.938	137.901	130.166	129.450	183.738	137.973	117.585	193.932	88.221	30.719
30.000	330.512	335.192	296.349	224.753	279.805	287.110	288.209	234.780	280.784	302.891	225.493	331.682	89.080	85.046	116.177	193.789	138.880	131.479	130.811	184.908	138.140	115.055	193.479	88.340	31.892
31.000	329.534	334.571	297.185	228.812	276.845	284.389	285.081	232.225	279.590	303.440	225.350	331.945	90.059	84.735	115.604	189.516	142.294	134.726	134.201	187.749	138.713	115.031	193.455	88.459	49.263
32.000	326.167	334.929	298.021	229.719	274.505	283.147	283.219	237.501	281.094	298.570	225.039	331.420	92.733	85.308	114.959	188.465	144.610	135.968	136.111	182.282	137.925	120.163	193.598	90.202	52.422
33.000	323.637	333.735	298.331	229.170	274.243	283.792	284.508	244.186	282.384	290.238	225.756	329.056	96.290	85.738	115.078	189.014	144.777	134.583	134.297	174.881	136.302	129.092	192.428	91.778	35.592
34.000	319.411	333.592	298.665	225.947	276.200	286.251	287.445	251.491	284.246	278.659	226.162	325.380	100.563	86.478	114.887	191.975	143.225	132.387	131.527	167.624	134.535	140.575	191.951	93.950	29.456
35.000	313.586	332.709	298.068	222.819	278.158	288.352	289.880	257.770	285.845	264.264	227.475	322.706	105.553	87.528	115.747	195.365	140.718	130.286	128.901	161.035	133.389	154.016	191.163	96.576	43.714
36.000	306.663	331.682	296.803	220.742	281.070	290.477	293.150	263.476	286.561	248.698	227.857	318.050	112.978	88.436	116.296	198.444	138.069	128.448	125.941	155.592	132.411	170.322	190.447	101.232	53.144
37.000	298.450	329.820	295.633	223.464	284.031	292.721	296.135	268.227	287.063	232.894	228.191	313.610	121.763	88.913	117.609	195.436	135.013	125.798	122.837	150.316	131.718	186.770	189.826	105.959	40.465
38.000	285.606	328.579	294.822	229.623	286.609	294.869	298.928	272.500	287.588	219.023	229.098	308.549	134.559	90.536	119.328	189.086	132.052	123.840	120.331	146.305	131.145	199.638	189.396	110.877	30.268
39.000	267.940	327.743	292.745	236.427	289.546	296.922	300.909	275.580	287.946	232.011	229.217	303.464	150.053	92.088	120.760	182.282	129.235	121.763	117.752	142.795	130.596	186.078	189.038	115.866	39.021
40.000	249.223	325.929	289.856	243.016	292.076	298.856	303.225	278.397	288.638	244.449	229.265	297.686	169.677	93.330	123.267	175.621	126.776	119.877	115.723	139.955	130.453	174.905	188.847	121.190	50.527
41.000	231.509	323.613	288.137	249.271	294.678	301.244	305.493	281.142	288.638	255.072	229.361	293.103	188.656	95.407	126.180	169.009	124.317	117.800	114.100	137.496	130.310	164.640	188.561	126.657	44.210
42.000	221.864	321.846	284.580	255.096	296.612	302.748	306.352	283.243	288.805	262.330	229.647	288.137	197.418	97.699	128.686	163.088	122.121	115.627	112.524	135.419	130.071	156.356	188.394	132.243	33.517
43.000	231.629	320.247	281.094	260.587	298.641	304.490	307.928	285.010	288.805	268.943	230.077	283.315	187.534	99.752	132.100	157.716	120.259	113.956	111.211	133.509	130.143	149.838	188.012	136.612	36.540
44.000	240.390	317.955	276.940	265.314	300.098	305.994	308.811	286.561	288.877	274.314	230.196	278.468	179.465	101.996	136.183	152.966	118.731	112.572	110.208	132.124	130.047	145.302	187.892	141.148	46.872
45.000	247.481	315.233	272.882	269.778	301.745	307.475	309.838	288.065	289.164	277.967	230.005	274.505	172.399	104.693	140.384	149.003	117.155	111.497	109.253	130.548	130.023	140.814	187.773	145.422	45.338
46.000	252.995	311.939	268.441	273.168	302.939	308.215	310.769	289.331	289.283	281.166	230.865	270.447	166.406	107.367	145.589	145.207	115.747	110.447	108.633	129.570	130.023	137.806	187.701	149.265	37.036
47.000	257.961	308.883	263.691	276.200	304.132	309.217	310.888	290.190	289.044	283.911	230.578	267.248	161.130	110.614	150.196	142.055	114.768	109.659	108.203	128.471	129.904	134.941	187.630	152.846	35.953
48.000	262.640	305.493	259.465	279.065	304.872	310.005	311.605	291.073	289.140	286.132	230.578	263.500	157.334	114.100	155.329	139.334	113.431	108.800	107.749	127.898	129.952	132.936	187.534	156.093	43.849
49.000	266.508	301.864	254.428	281.954	306.114	310.721	311.724	291.575	289.092	288.089	231.247	260.826	153.324	118.349	160.605	136.803	112.739	108.394	107.343	126.729	129.880	130.739	187.343	158.958	45.428
50.000	269.277	296.994	249.820	284.461	306.496	310.745	312.201	292.530	289.235	289.665	231.079	257.173	150.148	122.049	166.359	134.678	111.832	107.654	106.818	126.203	129.880	129.164	187.319	162.252	39.653
51.000	272.452	293.365	244.496	286.156	307.451	311.461	312.631	293.222	289.283	291.384	230.888	254.762	147.379	127.063	171.515	132.363	111.354	107.367	106.556	125.559	129.975	127.540	187.224	165.141	36.630
52.000	274.959	288.519	239.769	287.755	307.856	311.605	312.345	293.843	289.259	292.601	231.008	251.276	144.681	130.978	176.099	130.501	110.757	106.890	106.269	124.986	129.928	126.466	187.200	167.743	41.458
53.000	277.346	284.102	235.902	289.808	308.477	312.321	313.180	294.416	289.044	293.532	231.103	249.295	143.034	134.989	181.017	129.474	110.328	106.723	106.126	124.413	129.856	125.535	187.200	170.154	45.022
54.000	279.232	280.665	232.584	290.763	309.241	312.655	313.133	294.726	289.140	294.463	231.438	246.955	140.838	139.071	184.908	127.970	109.683	106.388	105.911	123.983	129.761	124.795	187.009	172.494	41.232
55.000	280.641	276.749	229.814	291.670	309.122	312.965	313.347	294.822	289.044	294.917	231.461	245.045	139.214	143.058	188.322	126.896	109.540	106.293	105.863	123.577	129.713	123.912	186.937	174.762	37.668
56.000	281.978	272.452	227.952	292.601	309.361	312.870	313.467	295.227	289.355	295.681	231.223	242.897	137.639	146.735	190.853	126.012	109.110	106.006	105.648	123.291	129.880	123.315	186.937	176.290	39.698
57.000	283.697	268.656	226.687	293.676	309.766	312.774	313.491	295.944	289.235	295.896	231.294	241.202	136.326	151.533	192.715	125.368	108.943	106.030	105.648	123.028	129.713	122.861	186.914	178.295	44.436
58.000	284.293	264.741	225.971	293.962	309.981	313.037	313.873	296.326	288.973	296.278	231.438	240.151	135.251	155.353	193.932	124.580	108.609	105.935	105.386	122.694	129.713	122.670	186.723	179.728	42.225
59.000	285.129	260.324	225.827	294.750	309.957	313.085	313.729	296.326	289.068	296.755	231.175	238.456	134.320	159.507	194.672	124.031	108.537	105.744	105.338	122.408	129.832	122.049	186.890	181.232	39.157
60.000	286.418	256.123	225.899	294.989	310.435	312.989	313.753	296.612	289.259	297.281	231.390	237.334	133.127	163.183	194.625	123.315	108.203	105.553	105.243	122.169	129.689	121.763	186.651	182.306	39.112
61.000	287.874	252.255	226.758	295.514	310.674	313.324	314.111	296.851	289.307	297.495	231.509	236.117	132.315	167.576	194.601	123.100	108.322	105.481	105.099	121.835	129.689	121.357	186.818	183.571	43.217
62.000	288.400	247.815	227.570	296.087	310.865	313.347	314.111	296.875	289.068	298.235	231.652	234.732	131.097	171.658	193.694	122.503	107.988	105.386	105.052	121.596	129.808	121.047	186.651	184.455	42.721
63.000	289.116	243.876	228.143	296.851	311.342	313.228	313.753	297.042	288.949	297.901	231.724	233.992	130.381	175.980	192.619	122.169	107.892	105.410	104.932	121.500	129.641	120.641	186.579	185.505	39.472
64.000	290.047	239.841	229.193	296.946	310.793	313.443	314.111	297.591	289.307	298.355	231.485	233.491	129.975	179.728	191.688	121.882	107.892	105.290	104.980	121.262	129.761	120.474	186.508	186.436	39.021
65.000	290.596	235.902	229.910	297.304	311.103	313.729	314.350	297.758	289.020	298.522	231.533	232.273	128.877	183.595	190.590	121.429	107.630	105.171	105.004	121.166	129.784	120.140	186.532	187.367	42.135
66.000	291.408	232.225	230.769	297.376	311.056	313.610	314.350	297.854	289.044	298.570	231.772	231.199	128.304	187.296	189.659	121.262	107.511	105.195	104.908	120.951	129.570	119.853	186.532	187.964	42.947
67.000	291.814	228.501	231.748	297.639	311.127	313.729	314.111	297.997	289.187	298.904	231.652	230.841	127.875	190.614	188.752	120.784	107.487	105.195	104.861	120.760	129.784	119.686	186.508	188.967	39.924
68.000	292.386	225.398	232.321	297.973	311.438	313.562	314.064	298.045	289.450	299.525	231.796	230.148	127.087	194.219	187.725	120.569	107.511	105.171	104.837	120.689	129.689	119.447	186.532	189.659	39.021
69.000	293.222	222.175	233.252	298.379	311.438	313.634	314.398	298.283	289.474	299.501	231.748	229.265	126.490	197.012	186.794	120.522	107.415	105.028	104.741	120.593	129.713	119.399	186.317	190.160	41.007
70.000	293.914	219.716	233.825	298.426	311.461	313.944	314.660	298.259	289.498	299.740	231.820	228.525	126.012	199.758	185.983	120.140	107.320	105.147	104.837	120.450	129.593	119.041	186.388	191.020	42.947
71.000	293.843	218.594	234.708	298.689	311.366	313.968	314.565	298.283	289.211	299.763	231.724	228.239	125.392	201.333	185.075	120.020	107.248	105.052	104.741	120.378	129.665	118.946	186.365	191.497	40.736
72.000	294.487	219.501	235.448	298.713	311.533	313.658	314.446	298.450	289.140	300.050	231.700	227.570	124.938	200.927	184.216	119.829	107.224	105.052	104.717	120.235	129.570	118.827	186.484	192.261	39.202
73.000	295.227	221.220	236.188	299.119	311.652	314.040	314.302	298.713	289.283	300.026	231.485	226.687	124.795	199.137	183.524	119.471	107.081	104.956	104.741	120.092	129.689	118.707	186.532	192.763	40.014
74.000	295.395	223.655	236.642	299.143	311.796	313.920	314.278	298.546	289.307	300.289	231.700	226.281	124.270	196.773	182.736	119.352	107.152	104.980	104.693	119.901	129.641	118.349	186.412	193.168	42.450
75.000	295.872	226.018	237.597	299.572	311.724	314.040	314.589	298.522	289.378	300.432	231.796	225.589	123.697	194.386	182.139	119.137	107.057	105.004	104.646	119.901	129.689	118.421	186.436	193.885	41.277
76.000	296.230	228.525	237.812	299.429	311.796	314.016	314.732	298.952	289.283	300.981	231.891	225.589	123.339	191.402	181.447	119.065	107.057	105.028	104.622	119.829	129.617	118.206	186.412	194.243	39.382
77.000	296.540	231.079	238.623	299.811	311.915	313.896	314.422	299.047	289.450	300.981	231.987	224.801	123.052	188.943	180.874	118.970	106.890	104.861	104.550	119.781	129.593	118.182	186.269	194.768	39.427
78.000	297.042	233.491	239.053	299.978	311.915	314.040	314.923	298.999	289.259	300.790	231.676	224.252	122.861	186.460	180.277	118.827	106.938	104.861	104.670	119.853	129.570	117.991	186.436	194.935	42.044
79.000	296.970	235.902	239.674	299.978	312.106	314.135	314.589	298.880	289.187	300.718	231.843	223.846	122.431	184.144	179.656	118.755	106.842	104.741	104.502	119.662	129.665	117.991	186.484	195.245	41.638
80.000	297.233	237.979	240.533	299.716	311.557	313.944	314.565	299.071	289.498	301.076	231.963	223.607	121.787	181.805	179.274	118.659	106.866	104.741	104.479	119.614	129.402	117.585	186.293	195.842	39.608
81.000	297.734	240.486	240.915	300.074	311.843	314.231	314.684	299.071	289.426	301.196	232.011	222.867	121.596	179.632	178.462	118.564	106.842	104.789	104.622	119.471	129.593	117.466	186.245	196.367	39.157
82.000	297.997	242.539	241.441	299.931	311.843	314.087	314.708	299.381	289.378	301.411	232.154	222.604	121.405	177.770	178.057	118.468	106.890	104.741	104.383	119.376	129.498	117.346	186.102	196.821	41.367
83.000	298.713	244.496	241.584	300.289	312.058	314.040	314.422	299.286	289.402	301.673	231.963	222.294	120.975	175.287	177.579	118.254	106.675	104.741	104.502	119.423	129.546	117.299	186.365	197.227	41.909
84.000	298.474	246.526	242.419	300.742	312.082	313.944	314.541	299.405	289.331	301.936	232.034	221.697	120.784	173.234	177.125	118.039	106.556	104.670	104.502	119.447	129.689	117.299	186.269	197.513	39.969
85.000	298.999	248.077	242.682	300.432	312.178	314.398	314.828	299.334	289.378	301.697	232.225	221.554	120.713	171.491	176.553	118.039	106.627	104.622	104.455	119.280	129.570	116.988	186.317	197.943	39.202
86.000	299.286	249.605	243.279	300.909	312.488	314.446	314.756	299.692	289.259	301.697	231.987	221.196	120.378	170.083	176.027	117.872	106.723	104.693	104.479	119.161	129.617	117.060	186.197	198.253	40.871
87.000	299.596	251.205	243.780	301.148	312.178	314.541	314.971	299.525	289.164	301.817	232.011	221.172	120.020	168.722	175.598	117.848	106.627	104.837	104.502	119.328	129.641	116.845	186.174	198.468	41.819
88.000	299.668	252.327	244.067	300.790	312.058	314.159	314.780	299.763	289.259	302.318	231.676	220.742	119.614	167.361	175.096	117.943	106.532	104.598	104.455	119.185	129.546	116.869	186.102	198.588	40.510
89.000	299.954	253.306	244.091	300.766	312.512	314.541	314.899	299.501	289.187	302.342	232.011	221.005	119.638	166.359	174.905	117.657	106.460	104.502	104.288	119.089	129.617	116.773	186.150	198.779	39.292
90.000	300.217	254.595	244.258	301.196	312.440	314.326	314.995	299.931	289.235	302.294	231.987	220.456	119.590	165.141	174.547	117.657	106.436	104.526	104.455	119.113	129.713	116.845	186.126	198.946	40.330
91.000	300.527	255.359	245.093	301.053	312.464	314.255	314.875	299.954	289.355	302.175	232.130	220.360	119.447	164.329	174.308	117.513	106.579	104.717	104.431	119.041	129.426	116.726	186.197	199.185	41.683
92.000	300.002	256.743	245.356	301.053	312.130	314.207	314.804	299.859	289.713	302.294	232.082	220.289	118.994	163.422	173.879	117.513	106.365	104.574	104.431	118.994	129.546	116.463	186.221	199.304	40.961
93.000	300.289	257.054	245.475	301.411	312.536	314.398	314.851	300.026	289.259	302.198	231.891	220.193	118.898	162.682	173.592	117.513	106.388	104.526	104.335	118.970	129.570	116.535	186.197	199.447	39.518
94.000	300.933	258.009	246.072	301.315	312.655	314.422	314.828	299.644	289.450	302.413	232.130	220.002	118.636	161.870	173.497	117.179	106.460	104.574	104.407	118.946	129.593	116.535	186.221	199.328	39.788
95.000	300.933	258.797	245.881	301.673	312.536	314.183	314.851	299.954	289.569	302.557	232.082	219.954	118.659	161.106	173.067	117.346	106.460	104.622	104.502	118.898	129.689	116.511	186.317	199.638	41.367
96.000	301.053	259.489	246.144	301.076	312.392	314.565	315.066	299.859	289.522	302.748	232.202	220.026	118.397	160.247	172.924	117.346	106.412	104.550	104.311	118.874	129.617	116.487	186.174	199.662	41.367
97.000	301.005	260.133	246.526	301.411	312.846	314.231	314.804	300.169	289.331	302.437	231.987	219.381	118.445	159.650	172.613	117.179	106.532	104.598	104.383	118.922	129.593	116.177	186.317	199.901	39.788
98.000	301.435	260.611	246.526	301.602	312.488	314.350	314.756	299.978	289.498	302.652	231.987	219.931	118.182	159.173	172.446	117.251	106.317	104.479	104.359	118.874	129.546	116.248	186.293	199.972	39.563
99.000	301.673	261.590	247.099	301.076	312.488	314.493	315.066	300.026	289.283	302.819	231.939	219.334	118.134	158.385	172.446	117.132	106.365	104.550	104.407	118.874	129.546	116.009	186.126	200.092	41.007
100.000	301.673	262.401	247.051	301.602	312.249	314.231	315.090	300.002	289.331	302.771	232.202	219.095	118.015	157.478	172.040	117.132	106.556	104.670	104.455	118.755	129.474	115.962	186.102	200.307	41.367
101.000	301.554	263.213	247.433	301.578	312.560	314.374	315.042	300.312	289.498	302.939	231.867	219.023	117.800	157.024	171.706	117.275	106.365	104.502	104.383	118.659	129.617	116.081	186.150	200.617	40.149
102.000	301.864	263.500	247.815	301.387	312.583	314.493	315.066	300.098	289.498	303.344	232.058	218.785	117.370	156.141	171.444	117.108	106.293	104.526	104.311	118.755	129.450	115.938	186.197	200.880	39.653
103.000	302.222	264.120	247.791	301.912	312.655	314.493	314.804	300.241	289.617	302.939	232.034	218.474	117.466	155.520	171.253	116.964	106.365	104.455	104.431	118.588	129.522	115.890	186.221	200.832	40.691
104.000	302.103	264.693	248.054	301.793	312.464	314.684	315.042	300.265	289.665	303.225	231.987	218.641	117.227	155.043	170.966	117.060	106.293	104.502	104.216	118.659	129.546	115.771	186.221	201.071	41.413
105.000	302.461	265.123	248.626	301.912	312.440	314.398	315.114	300.193	289.020	303.130	232.249	218.355	117.155	154.684	170.704	116.893	106.293	104.502	104.264	118.492	129.498	115.747	186.102	201.023	40.510
106.000	302.533	265.720	248.459	301.864	312.560	314.637	315.186	300.336	289.713	303.201	232.130	218.474	117.203	154.064	170.417	116.750	106.269	104.526	104.335	118.612	129.474	115.723	186.174	201.285	39.608
107.000	302.628	266.126	248.531	302.031	313.156	314.541	314.947	300.575	289.498	303.177	231.939	217.830	116.893	153.467	170.250	116.773	106.221	104.383	104.240	118.588	129.761	115.747	186.245	201.548	40.285
108.000	302.843	266.627	249.080	301.960	312.369	314.326	314.899	300.384	289.617	303.488	231.963	217.925	116.797	153.252	170.154	116.678	106.221	104.407	104.240	118.492	129.617	115.651	186.221	201.476	41.322
109.000	302.580	266.890	249.319	302.198	312.751	314.780	314.995	300.384	289.498	303.249	232.058	217.949	116.606	152.727	169.868	116.845	106.317	104.550	104.264	118.516	129.498	115.413	186.126	201.453	40.871
110.000	302.915	267.248	249.152	302.055	312.583	314.541	314.923	300.384	289.402	303.535	231.820	217.686	116.439	152.369	169.892	116.606	106.126	104.431	104.311	118.516	129.498	115.556	186.102	201.644	39.924
111.000	303.440	267.701	249.510	301.769	312.583	314.780	315.162	300.527	289.784	303.535	232.225	217.949	116.391	152.034	169.629	116.535	106.078	104.240	104.264	118.397	129.379	115.413	186.197	201.763	40.194
112.000	303.225	268.250	249.772	302.079	312.679	314.660	315.162	300.456	289.187	303.559	231.843	217.686	116.463	151.676	169.390	116.630	106.030	104.383	104.264	118.540	129.761	115.556	186.150	201.954	41.142
113.000	303.297	269.062	250.178	302.557	312.560	314.589	314.947	300.217	289.355	303.583	232.225	217.782	116.105	151.247	169.367	116.582	106.197	104.479	104.264	118.421	129.402	115.389	186.174	202.073	40.961
114.000	303.201	268.967	250.107	302.151	312.989	314.756	314.923	300.527	289.474	303.416	232.345	217.472	116.248	151.032	169.032	116.606	106.197	104.479	104.311	118.397	129.450	115.341	185.983	202.312	39.879
115.000	303.416	269.349	250.512	302.055	312.655	314.469	315.042	300.503	289.378	303.893	231.820	217.424	116.177	150.268	168.627	116.463	106.150	104.359	104.311	118.492	129.689	115.269	186.054	202.288	39.924
116.000	303.798	269.635	250.632	302.175	312.751	314.493	315.090	300.456	289.426	303.798	232.178	217.090	115.914	150.244	168.746	116.344	106.054	104.359	104.264	118.397	129.641	115.222	186.006	202.384	40.916
117.000	303.631	270.041	250.799	302.580	312.751	314.660	314.995	300.575	289.355	303.655	232.202	217.233	115.890	149.814	168.531	116.439	106.245	104.431	104.192	118.277	129.522	115.198	186.126	202.407	41.052
118.000	304.204	270.375	250.680	302.294	313.037	314.589	315.329	300.408	289.450	304.061	232.034	217.328	115.890	149.647	168.364	116.463	106.030	104.311	104.288	118.373	129.546	115.102	186.102	202.431	40.104
119.000	303.679	270.423	250.942	302.246	312.655	314.422	314.947	300.503	289.546	303.965	231.987	217.448	115.532	149.217	167.958	116.320	106.174	104.431	104.264	118.301	129.593	115.102	186.006	202.312	40.149
120.000	303.941	270.853	251.038	302.557	312.870	314.589	315.281	300.623	289.355	304.132	232.321	217.161	115.651	149.074	168.101	116.296	106.054	104.311	104.240	118.230	129.450	114.935	186.078	202.551	40.736
121.000	304.013	271.044	251.658	302.533	312.798	314.565	315.019	300.527	289.522	304.252	232.106	216.923	115.532	148.764	167.910	116.272	106.221	104.383	104.216	118.277	129.617	115.078	186.006	202.479	41.187
122.000	304.108	271.449	251.706	302.222	312.583	314.660	315.019	300.694	289.450	304.084	232.130	216.970	115.198	148.573	167.695	116.272	106.030	104.383	104.168	118.445	129.570	114.935	185.935	202.718	40.330
123.000	304.801	271.831	251.897	302.270	312.989	314.660	315.042	300.790	289.617	303.893	232.082	216.732	115.174	148.072	167.481	116.344	106.221	104.526	104.335	118.230	129.593	114.864	186.150	202.694	40.149
124.000	304.132	271.855	251.897	302.413	312.798	314.684	315.042	300.623	289.617	304.228	231.891	216.994	115.150	147.881	167.290	116.153	106.102	104.431	104.240	118.254	129.570	114.816	186.054	202.766	40.555
125.000	304.252	272.142	252.016	302.628	312.965	314.756	315.019	300.623	289.689	304.466	232.297	216.541	114.935	147.690	167.051	116.248	106.174	104.383	104.240	118.230	129.617	114.887	186.054	202.766	41.052
126.000	304.443	272.619	251.945	302.891	313.037	314.660	315.114	300.742	289.617	304.156	231.987	217.090	114.959	147.570	167.146	116.033	106.078	104.479	104.407	118.158	129.450	114.553	186.102	202.813	40.420
127.000	304.443	272.619	252.422	302.700	312.942	314.541	314.828	300.599	289.450	304.108	232.130	216.851	115.174	147.355	166.812	116.129	106.078	104.335	104.120	118.158	129.546	114.840	186.030	202.766	39.969
128.000	304.514	272.643	252.470	302.461	312.751	314.350	315.042	300.838	289.689	304.371	232.130	217.018	114.792	147.188	166.788	116.177	106.126	104.359	104.311	118.158	129.665	114.625	186.150	202.742	40.375
