-----------------------------------------------------
BloodHound 307 VOC Analyser V2017.1
RoboScientific Ltd 
Espace North
Wisbech Road
Littleport
Cambridgeshire, UK
CB6 1RA 
-----------------------------------------------------
Date = 06/04/2022
Time = 12:17:26
Data is protected by RoboScientific Limited
-----------------------------------------------------
Name of the experiment = "32b_Day 36"
-----------------------------------------------------
Repeat No. = 2/4
-----------------------------------------------------
Experimental Time (in sec) and Flow Profile :
-----------------------------------------------------
Baseline = 2.00
Absorb = 4.00
Pause = 1.00
Desorb = 5.00
Flush = 20.00
Wait = 5.00
Higher Flow (V) = 4.00
Medium Flow (V) = 3.00
Low Flow (V) = 1.00
-----------------------------------------------------
Total Profile Time = 37 in sec
-----------------------------------------------------
Acquired data point per second = 4
--------------------------------------------------
Total data point stored  = 128
-----------------------------------------------------
Acquired sensor responses from 24 sensors
-----------------------------------------------------

Data Points	 Sen-1	 Sen-2	 Sen-3	 Sen-4	 Sen-5	 Sen-6	 Sen-7	 Sen-8	 Sen-9	 Sen-10	 Sen-11	 Sen-12	 Sen-13	 Sen-14	 Sen-15	 Sen-16	 Sen-17	 Sen-18	 Sen-19	 Sen-20	 Sen-21	 Sen-22	 Sen-23	 Sen-24	Humidity (%r.h.)
0.000	312.751	307.021	293.437	304.992	314.708	315.353	315.950	297.161	286.490	310.936	229.289	274.099	106.651	112.452	125.559	113.527	104.168	103.524	103.500	121.787	132.769	107.701	189.062	145.207	46.105
1.000	312.894	307.236	293.771	305.087	314.756	315.711	315.806	297.090	286.323	311.270	229.313	274.243	106.675	112.333	125.750	113.622	104.097	103.548	103.524	121.858	133.007	107.797	189.086	144.872	45.518
2.000	312.488	307.546	293.509	305.517	314.851	315.377	315.759	296.827	286.370	311.175	229.337	274.720	106.723	112.166	125.583	113.550	104.049	103.619	103.548	121.858	132.864	107.797	189.134	144.586	38.299
3.000	313.013	307.021	293.652	305.302	315.042	315.663	315.591	296.922	286.728	311.461	229.313	274.625	106.579	112.190	125.392	113.479	104.049	103.571	103.571	121.835	132.769	107.701	189.086	144.299	34.464
4.000	313.061	307.260	293.747	305.183	314.899	315.400	315.830	297.113	286.442	311.318	229.193	275.293	106.460	112.261	125.535	113.598	104.073	103.476	103.428	121.906	132.792	107.797	189.110	144.228	40.149
5.000	313.037	307.498	294.010	305.039	314.899	315.520	316.069	297.066	286.275	311.223	228.931	274.959	106.556	111.975	125.416	113.527	104.097	103.595	103.643	122.026	132.745	107.725	189.110	144.085	46.962
6.000	313.109	307.403	293.962	305.183	314.995	315.663	315.687	297.018	286.370	311.199	229.289	275.412	106.627	112.023	125.177	113.479	104.001	103.476	103.715	121.882	133.031	107.773	189.110	143.941	44.481
7.000	313.228	307.498	294.082	305.445	314.971	315.400	315.663	297.209	286.108	311.414	229.361	275.389	106.532	112.070	125.105	113.479	104.144	103.404	103.643	121.811	132.840	107.654	189.038	143.846	36.495
8.000	313.180	307.475	294.082	305.278	314.708	315.544	315.663	297.066	286.370	311.438	229.170	275.675	106.460	112.118	125.344	113.622	104.120	103.476	103.404	121.763	132.840	107.749	189.086	143.631	35.231
9.000	312.560	307.069	293.843	305.016	314.660	315.711	315.472	296.946	286.657	311.366	229.193	275.818	106.388	112.070	125.081	113.479	104.049	103.452	103.548	121.835	132.864	107.534	188.919	143.512	42.586
10.000	311.700	305.159	294.201	305.039	314.565	315.281	315.806	296.827	286.728	310.960	228.573	271.426	107.367	113.718	125.225	113.598	104.144	103.571	103.643	121.930	132.243	108.083	189.587	146.949	47.368
11.000	294.296	255.478	290.978	303.703	314.541	315.329	315.496	295.395	287.397	304.610	226.472	279.781	126.347	167.457	128.161	115.198	104.335	103.786	103.619	123.482	131.312	114.911	191.497	140.217	39.879
12.000	260.396	278.540	283.959	300.217	313.968	314.517	315.663	291.360	287.827	284.580	224.825	300.432	160.223	138.785	135.108	118.421	104.813	104.144	103.882	127.970	130.906	135.132	193.359	119.161	47.684
13.000	235.926	300.909	274.911	294.272	313.371	313.920	315.019	286.251	288.042	266.914	223.344	311.461	182.234	116.702	143.774	123.888	105.219	104.765	103.858	132.339	130.692	151.199	194.911	107.869	47.865
14.000	268.203	312.918	265.195	286.251	312.798	313.085	314.708	280.665	287.683	248.268	222.103	318.528	149.958	105.410	153.944	131.909	105.839	105.815	104.240	137.758	131.074	170.632	196.176	100.611	35.953
15.000	291.050	319.889	255.860	277.275	311.915	311.915	314.541	275.365	287.063	225.875	221.077	322.754	128.519	99.083	164.114	141.315	106.699	106.985	104.670	143.464	131.790	192.643	197.036	96.958	29.682
16.000	306.424	324.281	246.860	267.988	311.127	310.220	313.682	269.086	286.179	241.727	220.551	326.167	113.527	94.595	174.332	151.653	107.558	108.633	105.386	150.053	132.649	176.887	197.681	93.927	41.458
17.000	315.472	327.528	240.271	257.388	310.220	308.215	312.870	262.234	285.129	261.065	219.978	326.884	103.452	91.157	181.805	161.536	108.943	110.542	106.269	157.120	133.771	156.547	198.325	92.757	53.685
18.000	321.130	329.414	239.292	247.409	308.215	305.421	311.557	254.571	284.461	276.606	219.716	329.008	97.675	90.083	181.112	171.324	110.017	112.787	107.129	164.329	134.869	141.554	198.707	91.515	46.421
19.000	325.547	331.157	244.425	237.263	306.997	302.580	310.315	246.430	282.598	287.564	219.310	329.510	93.879	88.364	171.658	181.088	111.808	115.842	108.991	172.590	136.087	130.859	199.113	89.582	30.674
20.000	327.289	332.947	251.062	228.812	305.278	299.286	308.143	239.459	281.309	295.108	219.477	331.133	91.635	87.266	161.966	190.160	113.503	119.567	110.996	180.420	137.376	122.909	199.161	90.226	31.486
21.000	329.725	332.566	257.865	221.435	303.297	295.442	305.493	232.512	280.163	300.838	219.119	331.443	89.176	86.597	154.111	198.063	115.651	123.721	113.455	187.892	138.809	117.060	199.471	89.629	47.052
22.000	331.085	333.162	263.142	223.392	300.718	290.644	302.413	226.687	278.564	305.780	219.047	331.276	88.221	85.332	147.212	194.983	117.943	127.516	116.368	193.359	140.408	112.572	199.686	89.009	54.272
23.000	331.754	333.449	267.749	230.292	297.901	285.654	298.665	223.344	276.845	308.668	219.334	332.566	86.669	86.335	141.817	187.415	120.760	132.554	120.259	195.866	141.960	108.824	199.447	88.436	41.367
24.000	332.924	333.497	272.190	237.907	294.822	280.617	294.440	226.567	274.959	312.154	219.334	332.327	85.260	85.619	137.257	180.683	124.031	137.400	124.246	192.476	143.750	106.627	199.638	87.576	28.599
25.000	333.950	334.237	275.580	242.849	291.623	276.153	290.190	229.313	273.861	313.896	218.880	332.136	85.404	85.189	134.201	175.741	127.254	142.342	129.092	189.396	145.589	104.837	199.447	87.242	33.607
26.000	333.568	335.072	277.394	242.777	289.665	274.123	286.991	229.265	272.619	313.992	219.549	332.184	85.666	85.404	132.172	175.216	129.617	144.299	131.981	189.325	146.138	104.479	199.399	87.146	49.534
27.000	334.141	334.404	278.206	242.300	289.593	274.935	286.275	228.525	273.001	313.682	219.286	332.637	86.048	85.117	131.599	176.194	129.999	143.846	132.912	190.256	145.875	105.243	199.758	87.337	53.505
28.000	333.115	334.714	278.683	241.178	289.068	275.269	286.060	227.522	273.383	313.610	219.167	333.043	85.189	85.260	131.861	177.293	130.166	143.273	133.270	190.877	145.469	105.290	199.781	87.099	39.202
29.000	334.046	335.574	278.874	240.223	289.331	275.675	285.845	226.997	273.574	313.491	219.453	332.613	85.642	85.022	131.814	178.415	130.119	143.154	133.270	191.593	145.159	105.505	199.758	87.314	28.102
30.000	333.926	334.738	279.614	243.541	288.328	274.028	284.484	229.552	273.789	314.875	219.191	333.473	85.380	84.138	131.503	175.383	130.883	144.299	134.368	189.086	145.589	104.526	199.853	88.507	36.359
31.000	334.356	335.192	281.405	248.030	285.583	270.327	281.214	230.554	272.404	314.159	219.000	333.425	85.499	86.072	129.259	169.963	133.628	148.286	138.021	187.869	146.782	103.667	199.423	88.078	52.738
32.000	332.255	335.597	282.718	249.796	283.458	268.585	279.566	228.191	273.980	311.414	219.525	332.160	87.481	85.380	128.615	168.674	135.801	150.125	139.787	190.184	144.777	107.439	199.471	89.128	50.301
33.000	330.489	334.261	283.458	248.698	283.768	270.662	281.381	224.825	276.988	303.870	219.358	329.772	89.605	85.857	128.089	170.131	135.060	147.690	137.663	194.410	141.697	114.768	198.898	90.298	34.645
34.000	327.719	333.282	283.482	244.377	285.869	274.338	285.081	233.562	279.757	294.082	220.217	326.979	92.733	86.478	128.328	174.141	133.198	144.228	134.034	186.054	139.119	125.678	197.991	93.210	29.140
35.000	323.088	332.327	282.694	237.573	288.471	278.206	289.020	242.539	282.264	278.993	221.482	323.303	96.266	87.242	129.020	180.157	130.214	140.098	129.761	176.720	136.636	139.143	197.012	96.171	40.646
36.000	317.716	331.157	281.787	229.647	291.503	282.479	292.840	250.775	283.434	261.590	222.342	319.745	101.924	88.531	130.286	188.131	127.612	136.230	126.156	168.913	135.132	157.645	196.129	100.325	53.053
37.000	309.933	329.868	279.734	221.793	294.463	286.442	296.397	257.316	285.033	241.990	222.963	314.828	109.969	89.677	132.649	196.582	124.580	132.291	122.455	161.727	134.153	177.842	195.341	105.696	46.601
38.000	297.830	328.030	277.346	223.225	296.660	289.713	299.692	262.306	285.368	221.578	223.750	307.952	121.763	91.706	134.941	195.269	122.121	128.639	119.352	156.379	133.318	198.277	194.672	111.521	32.930
39.000	280.856	325.953	274.147	232.584	298.999	293.270	302.389	266.937	286.108	235.806	224.204	302.198	138.928	93.712	137.806	185.481	119.471	124.986	116.391	151.748	132.912	182.330	194.219	117.561	32.659
40.000	257.675	323.303	270.829	242.467	301.124	296.922	304.825	270.686	286.418	251.396	224.586	295.299	160.677	96.194	141.578	176.003	117.609	121.978	114.052	148.430	132.411	167.719	193.574	123.888	44.120
41.000	236.284	320.151	266.675	251.444	303.177	299.763	307.188	273.359	286.776	263.428	225.063	288.424	182.927	99.776	145.899	167.051	115.651	118.898	112.023	145.087	132.339	156.212	193.336	130.501	49.489
42.000	221.840	316.045	261.566	259.465	304.657	302.604	308.501	275.651	286.633	272.046	225.541	282.503	197.991	103.571	151.485	159.220	113.861	115.842	110.399	142.366	132.291	147.093	192.977	137.281	42.044
43.000	231.199	311.628	256.361	265.911	306.185	304.753	309.790	277.895	286.824	278.230	225.589	275.866	187.940	108.012	157.860	152.655	112.572	113.598	109.062	140.360	132.291	140.718	192.906	143.536	34.735
44.000	245.690	305.254	250.035	271.330	307.045	306.854	311.127	279.734	286.418	283.028	225.971	269.802	173.019	114.291	164.162	146.854	111.306	111.736	108.131	138.594	132.339	135.514	192.381	149.361	36.630
45.000	258.462	297.710	244.353	276.105	308.286	308.573	311.796	281.047	286.609	287.469	226.233	263.762	161.846	121.524	171.205	142.628	110.423	110.280	107.272	137.185	132.291	132.029	191.999	155.186	44.030
46.000	267.892	289.426	238.862	280.307	309.122	309.814	312.512	282.742	286.514	289.999	226.544	257.937	151.653	129.880	177.770	138.498	109.564	108.847	106.603	135.801	132.267	128.615	191.879	161.035	45.293
47.000	275.985	279.972	234.732	283.386	310.244	311.151	312.774	283.935	286.728	292.577	226.806	251.897	143.703	139.692	183.643	135.013	108.704	107.845	106.245	134.702	132.315	126.371	191.545	166.812	41.007
48.000	281.429	269.778	231.629	286.179	310.459	311.724	313.467	284.842	286.705	294.463	227.164	246.335	137.424	149.910	188.465	132.339	108.131	106.985	105.696	133.533	132.363	124.413	191.521	172.566	37.623
49.000	285.965	258.820	231.843	288.591	311.223	312.416	313.491	285.654	286.466	296.135	227.284	241.059	132.411	159.626	189.611	130.023	107.511	106.293	105.362	132.458	132.387	122.646	191.378	177.579	39.021
50.000	290.310	247.099	234.517	290.668	311.628	313.252	314.040	286.776	286.681	297.639	226.782	235.711	129.689	171.563	186.245	127.684	107.129	105.768	105.147	131.623	132.482	121.190	191.235	182.640	43.127
51.000	292.864	234.374	238.814	293.007	312.178	313.228	314.231	287.970	286.323	298.976	227.093	231.127	126.657	184.192	181.518	126.132	106.388	105.290	104.861	130.453	132.578	120.140	191.068	187.821	42.721
52.000	295.347	223.512	242.968	294.105	312.369	313.825	314.446	288.877	286.132	300.002	227.212	227.116	124.461	195.890	176.839	124.556	106.221	105.123	104.646	129.737	132.602	119.089	190.948	191.473	40.014
53.000	297.376	231.772	246.764	295.013	313.013	314.064	314.756	289.689	286.442	300.599	227.594	223.798	122.408	187.439	172.279	123.386	106.006	104.884	104.550	128.830	132.530	118.015	190.877	194.959	39.157
54.000	298.761	244.114	250.823	296.015	312.846	314.374	314.899	290.453	286.824	301.793	227.928	221.315	120.617	175.287	168.221	122.360	105.768	104.574	104.383	128.209	132.625	117.346	190.757	197.704	40.375
55.000	299.835	254.619	254.595	297.304	313.371	314.374	314.660	290.811	286.227	302.461	227.618	219.692	119.590	165.356	164.735	121.548	105.744	104.502	104.335	127.731	132.649	116.654	190.495	199.614	41.277
56.000	301.482	263.333	257.746	297.877	313.443	314.637	315.210	291.694	286.466	303.273	227.689	219.095	118.373	156.499	161.632	120.808	105.457	104.502	104.264	127.182	132.578	116.081	190.518	200.712	40.555
57.000	302.007	269.707	260.372	298.737	313.753	314.517	314.923	292.721	286.609	303.464	228.167	219.572	117.227	149.910	158.982	120.116	105.434	104.383	104.288	126.251	132.578	115.436	190.518	200.450	40.555
58.000	303.153	274.840	262.903	298.952	313.658	314.756	315.090	293.079	286.514	304.013	228.119	220.671	116.415	144.395	156.284	119.471	105.219	104.240	104.120	125.726	132.602	115.078	190.495	199.137	40.961
59.000	303.607	278.922	264.646	299.835	313.873	314.899	315.233	293.270	286.156	304.252	228.024	222.175	115.866	140.432	154.040	119.041	105.123	104.216	104.073	125.559	132.745	114.744	190.351	197.657	40.510
60.000	304.443	282.527	266.961	299.740	313.944	315.233	315.377	293.556	286.347	304.825	228.239	223.894	115.317	137.567	152.297	118.588	105.123	104.144	104.240	125.153	132.625	114.314	190.160	195.866	39.292
61.000	305.207	284.580	268.680	300.169	313.849	315.019	315.615	294.058	286.347	304.872	228.262	225.612	114.482	134.893	150.363	118.158	105.099	104.049	103.953	124.795	132.745	113.813	190.137	194.171	39.833
62.000	305.278	286.919	270.351	300.671	314.016	315.019	315.114	293.962	286.347	305.517	228.334	227.355	114.147	132.673	148.812	118.158	105.052	103.977	103.929	124.604	132.697	113.407	190.160	192.404	41.683
63.000	305.230	288.495	271.999	300.981	313.992	314.947	315.448	294.272	286.156	305.660	228.119	228.501	113.574	130.954	147.236	117.728	104.908	103.977	103.906	124.532	132.697	113.336	190.089	190.948	42.180
64.000	306.138	289.951	273.001	301.435	314.087	314.947	315.448	294.535	286.179	306.018	228.382	230.077	113.025	129.331	145.923	117.394	104.670	103.858	103.882	124.341	132.625	113.121	189.874	189.420	40.059
65.000	306.973	291.623	274.171	301.267	314.040	315.090	315.687	294.654	286.275	306.161	228.024	231.629	112.930	128.042	144.705	117.179	104.861	103.977	103.953	124.341	132.554	112.667	190.041	187.797	39.202
66.000	306.615	292.673	275.221	301.864	314.159	315.019	315.591	294.631	286.060	306.376	228.286	233.276	112.548	126.705	143.655	116.917	104.789	103.882	103.882	124.198	132.769	112.452	189.922	186.293	39.924
67.000	307.284	293.771	276.439	301.721	314.207	315.090	315.329	294.750	286.036	306.687	228.621	234.589	112.357	125.917	142.748	116.869	104.765	103.882	103.810	123.959	132.745	112.428	189.898	184.956	42.811
68.000	307.689	294.750	277.561	301.984	314.231	315.090	315.448	294.917	286.299	306.806	228.071	235.878	111.927	124.938	141.673	116.606	104.598	103.786	103.786	123.912	132.697	112.166	189.850	183.643	42.450
69.000	307.928	295.251	277.943	302.198	314.231	315.377	315.639	295.156	286.299	306.782	228.453	237.143	111.569	124.055	140.981	116.439	104.574	103.858	103.929	123.792	132.745	111.975	189.898	182.593	39.563
70.000	307.952	296.230	278.898	302.294	314.255	315.615	315.639	295.180	286.514	307.284	228.239	238.074	111.545	123.386	140.146	116.177	104.622	103.858	103.834	123.601	132.888	111.879	189.707	181.470	38.976
71.000	308.286	297.304	279.757	302.915	314.183	315.042	315.448	295.275	286.060	307.236	228.621	239.387	111.139	122.766	139.429	116.296	104.574	103.715	103.786	123.601	132.912	111.808	189.778	180.134	40.736
72.000	308.406	297.424	280.259	303.106	314.804	315.138	315.448	295.347	285.965	307.212	228.549	240.390	111.115	121.978	138.761	116.129	104.598	103.810	103.762	123.434	132.769	111.402	189.778	178.844	43.984
73.000	308.429	298.092	281.070	302.533	314.255	315.353	315.400	295.538	286.323	307.570	228.525	241.799	110.805	121.333	138.236	115.914	104.407	103.739	103.715	123.410	132.888	111.354	189.635	177.770	42.180
74.000	308.859	298.474	281.572	302.771	314.422	315.400	315.377	295.586	286.132	307.689	228.644	242.539	110.710	120.951	137.615	115.795	104.502	103.858	103.762	123.339	132.864	111.306	189.611	176.863	39.157
75.000	308.907	299.334	282.479	302.962	314.398	315.377	315.591	295.586	286.108	307.713	228.668	243.565	110.566	120.522	137.042	115.842	104.479	103.691	103.810	123.267	132.792	111.092	189.826	175.765	38.615
76.000	308.907	299.477	282.694	303.225	314.469	315.162	315.687	295.777	286.132	307.880	228.644	244.472	110.160	120.211	136.564	115.651	104.502	103.619	103.810	123.195	132.792	111.068	189.611	174.929	42.180
77.000	309.719	299.907	283.195	303.297	314.469	315.400	315.759	295.729	286.251	307.689	228.549	245.093	110.351	119.638	136.015	115.627	104.359	103.762	103.762	123.243	132.840	110.948	189.587	174.141	44.165
78.000	309.695	300.026	283.601	303.344	314.804	315.687	315.759	295.944	286.156	308.071	228.716	245.953	110.065	119.519	135.633	115.508	104.383	103.691	103.643	123.076	132.745	110.877	189.540	173.592	41.367
79.000	309.647	300.241	283.935	303.297	314.255	315.400	315.544	296.063	286.466	308.095	228.740	246.860	109.898	119.185	135.204	115.436	104.383	103.739	103.643	123.076	132.816	110.805	189.516	172.804	38.209
80.000	309.599	301.076	284.317	303.488	314.851	315.210	315.568	296.063	286.299	308.334	228.430	247.528	110.017	118.898	134.774	115.317	104.383	103.571	103.691	122.981	132.936	110.686	189.635	172.064	38.751
81.000	309.647	300.862	284.628	303.416	314.732	315.424	315.639	296.087	286.299	308.167	228.931	248.483	109.755	118.683	134.488	115.269	104.502	103.762	103.786	122.909	132.769	110.566	189.707	170.895	43.353
82.000	310.053	301.100	284.795	303.583	314.613	315.377	315.711	295.872	286.347	308.788	228.525	248.937	109.755	118.158	134.177	115.413	104.479	103.691	103.619	122.861	132.721	110.447	189.516	170.226	44.030
83.000	309.838	301.482	285.415	303.631	314.469	315.520	315.615	295.968	285.988	308.382	228.477	249.677	109.516	117.991	133.771	115.246	104.526	103.715	103.715	122.861	132.745	110.328	189.611	169.462	40.330
84.000	310.363	301.649	285.774	303.917	314.350	315.353	315.687	296.397	286.514	308.716	228.955	250.632	109.253	117.895	133.485	115.126	104.359	103.691	103.643	122.813	132.697	110.232	189.611	168.794	37.352
85.000	310.029	302.007	286.012	303.583	314.660	315.353	315.496	296.182	286.251	308.931	228.883	251.467	109.420	117.633	133.103	114.959	104.359	103.619	103.643	122.813	132.840	110.256	189.635	167.743	39.112
86.000	310.101	302.151	285.941	303.321	314.278	315.233	315.591	296.349	286.370	308.883	229.074	252.303	109.086	117.370	132.888	115.055	104.383	103.595	103.762	122.766	132.816	110.017	189.492	167.075	44.210
87.000	310.005	302.867	286.776	303.893	314.326	315.233	315.687	296.015	286.275	308.859	228.764	253.091	108.991	117.108	132.530	114.959	104.455	103.691	103.571	122.742	132.816	109.922	189.516	166.430	43.984
88.000	310.483	302.724	286.824	303.655	314.708	315.472	315.687	296.159	286.179	309.050	228.835	253.831	109.086	117.060	132.458	114.983	104.335	103.691	103.619	122.718	132.864	110.017	189.396	165.666	39.157
89.000	310.602	302.724	287.516	303.846	314.613	315.544	315.663	296.063	286.442	308.979	228.931	254.046	108.633	116.797	132.172	114.911	104.407	103.667	103.643	122.622	132.792	109.778	189.492	165.189	36.991
90.000	310.650	303.130	287.230	303.893	314.469	315.448	315.902	296.230	286.490	309.361	229.074	254.929	108.824	116.654	131.885	114.911	104.264	103.643	103.643	122.670	132.745	109.898	189.420	164.735	40.285
91.000	310.530	303.321	287.373	303.726	314.541	315.353	315.687	296.397	286.156	309.074	228.835	255.216	108.776	116.344	131.647	114.744	104.335	103.667	103.595	122.670	132.792	109.707	189.444	163.661	44.616
92.000	310.960	303.488	288.042	303.893	314.326	315.377	315.663	296.373	286.036	309.193	229.050	255.956	108.656	116.248	131.527	114.696	104.311	103.595	103.619	122.670	132.864	109.778	189.444	163.183	43.533
93.000	310.936	303.392	287.803	303.822	314.398	315.377	315.854	296.421	286.681	309.361	228.835	256.911	108.704	116.009	131.169	114.744	104.311	103.595	103.548	122.670	132.840	109.659	189.444	162.515	38.570
94.000	311.223	303.273	287.922	303.941	314.756	315.687	316.045	296.421	286.323	309.552	228.621	257.484	108.633	115.723	130.954	114.625	104.144	103.548	103.643	122.622	132.864	109.564	189.444	161.870	36.991
95.000	311.079	304.156	288.662	304.061	314.660	315.544	315.544	296.397	286.227	309.146	228.883	257.842	108.274	115.747	130.787	114.696	104.359	103.643	103.691	122.551	132.792	109.373	189.420	161.417	41.593
96.000	311.294	303.655	288.638	303.893	314.302	315.568	315.615	296.564	286.084	309.193	228.907	258.653	108.418	115.580	130.620	114.529	104.216	103.619	103.643	122.527	132.745	109.420	189.444	160.844	45.293
97.000	311.056	304.084	288.877	304.347	314.613	315.615	315.854	296.445	286.251	309.623	228.835	259.059	108.346	115.532	130.453	114.577	104.216	103.667	103.667	122.455	132.792	109.373	189.468	160.486	42.450
98.000	311.008	304.299	289.116	304.443	314.589	315.305	315.663	296.302	286.060	309.432	228.668	259.823	108.465	115.317	130.238	114.362	104.216	103.571	103.619	122.527	132.960	109.444	189.373	159.937	36.991
99.000	311.438	304.204	289.546	304.634	314.469	315.233	315.448	296.493	286.490	309.957	228.788	260.014	108.370	115.150	130.119	114.553	104.168	103.643	103.667	122.551	132.960	109.349	189.444	159.292	37.352
100.000	311.223	304.252	289.259	303.965	314.469	315.114	315.735	296.684	286.370	309.838	228.907	260.420	108.107	115.126	129.808	114.458	104.240	103.548	103.571	122.527	132.816	109.301	189.564	158.743	42.902
101.000	311.557	304.490	289.546	304.132	314.756	315.400	315.782	296.636	286.394	309.742	228.859	260.706	108.107	115.126	129.665	114.386	104.288	103.643	103.667	122.479	132.888	109.277	189.373	158.504	45.564
102.000	311.032	304.586	289.713	304.801	314.899	315.782	315.568	296.373	285.965	309.742	229.002	261.065	108.203	115.031	129.546	114.410	104.311	103.476	103.524	122.408	132.840	109.253	189.444	158.218	41.774
103.000	311.199	304.538	290.262	304.347	314.804	315.711	315.854	296.612	286.227	309.719	228.621	261.423	108.179	114.840	129.450	114.362	104.288	103.691	103.691	122.360	132.864	109.158	189.444	157.597	36.540
104.000	311.366	305.111	290.023	304.228	314.660	315.520	315.806	296.588	285.965	309.719	228.740	261.805	108.155	114.673	129.164	114.482	104.288	103.548	103.571	122.408	132.936	109.182	189.444	157.334	37.758
105.000	311.605	304.825	289.808	304.037	314.756	315.520	315.687	296.517	286.466	309.742	229.002	262.616	107.964	114.696	129.164	114.338	104.240	103.595	103.643	122.408	132.888	109.015	189.444	156.809	43.849
106.000	311.438	304.872	289.808	304.920	315.138	315.782	315.424	296.326	286.299	309.838	229.098	262.831	107.916	114.577	128.997	114.291	104.240	103.643	103.619	122.455	132.864	108.943	189.420	156.356	45.473
107.000	311.628	305.230	290.477	304.252	314.565	315.281	315.663	296.564	286.609	309.933	229.050	263.523	107.869	114.553	129.092	114.243	104.097	103.524	103.619	122.336	132.936	109.086	189.349	155.974	40.555
108.000	311.533	305.326	290.882	304.586	314.493	315.353	315.448	296.588	286.347	309.957	228.835	263.595	107.988	114.314	128.853	114.314	104.311	103.643	103.476	122.360	132.983	108.967	189.349	155.663	35.682
109.000	311.390	305.135	290.357	304.443	314.708	315.472	315.735	296.636	286.132	310.053	228.907	264.192	107.797	114.243	128.782	114.171	104.216	103.595	103.595	122.193	132.864	108.919	189.277	155.305	38.705
110.000	311.796	305.159	290.548	304.586	315.019	315.711	315.711	296.731	286.108	309.957	229.193	264.192	107.654	114.291	128.782	114.267	104.264	103.619	103.667	122.360	132.816	108.943	189.253	154.971	44.797
111.000	312.034	305.230	290.691	304.490	314.804	315.544	315.950	296.779	286.466	310.148	229.026	264.478	107.940	114.123	128.543	114.076	104.168	103.452	103.571	122.240	132.888	108.895	189.253	154.637	45.383
112.000	311.628	305.684	290.930	304.443	314.732	315.353	315.615	296.684	286.108	309.933	229.050	264.980	107.534	114.076	128.400	114.171	104.168	103.428	103.643	122.336	132.745	108.800	189.325	154.422	39.608
113.000	311.557	305.660	290.882	304.634	314.732	315.353	315.568	296.660	286.275	310.077	229.050	265.242	107.892	113.861	128.376	114.147	104.311	103.667	103.571	122.145	132.888	108.824	189.373	154.135	35.547
114.000	311.963	305.445	291.121	304.371	314.589	315.472	315.735	296.827	286.394	310.292	229.002	265.672	107.582	114.004	128.042	114.100	104.216	103.619	103.667	122.145	132.792	108.776	189.349	153.706	39.157
115.000	311.533	305.398	291.097	304.610	314.637	315.305	315.639	296.851	286.514	310.220	229.170	265.648	107.534	113.861	128.113	114.100	104.120	103.548	103.643	122.217	132.840	108.704	189.349	153.515	45.473
116.000	312.106	305.803	291.336	304.968	314.828	315.520	315.615	296.660	286.084	310.053	228.931	265.839	107.701	113.909	128.018	114.052	104.264	103.524	103.548	122.217	132.816	108.656	189.301	153.109	44.661
117.000	311.987	305.780	291.336	304.777	314.756	315.568	315.806	296.612	286.299	310.196	229.146	266.436	107.582	113.861	128.089	114.123	104.120	103.643	103.691	122.193	132.864	108.442	189.277	152.846	38.164
118.000	311.939	306.066	291.599	304.275	314.660	315.472	315.472	296.779	286.203	310.172	229.289	266.937	107.463	113.694	127.898	114.123	104.144	103.476	103.571	122.026	132.840	108.513	189.277	152.154	35.682
119.000	311.963	306.209	291.670	304.681	314.684	315.400	315.711	296.564	286.036	310.124	228.764	267.176	107.511	113.455	127.731	113.837	104.168	103.715	103.643	122.217	132.912	108.609	189.229	151.987	41.458
120.000	311.963	305.947	291.861	304.610	314.684	315.639	315.926	296.779	286.036	310.005	229.074	267.248	107.367	113.527	127.660	113.980	104.144	103.691	103.643	122.264	132.792	108.537	189.182	151.915	46.466
121.000	311.963	306.424	291.599	304.681	314.517	315.424	315.782	296.708	286.323	310.411	229.313	267.534	107.320	113.503	127.612	113.837	104.168	103.667	103.571	122.145	132.912	108.561	189.110	151.700	43.172
122.000	312.010	305.803	291.551	304.968	314.756	315.615	315.639	296.779	286.275	310.459	229.361	268.059	107.320	113.431	127.588	114.076	104.359	103.643	103.571	122.145	132.816	108.585	189.277	151.366	36.359
123.000	311.748	305.923	291.814	304.634	314.851	315.806	315.735	296.731	286.179	310.411	229.384	267.868	107.320	113.550	127.540	113.932	104.240	103.548	103.643	122.193	132.936	108.394	189.134	151.247	36.630
124.000	312.321	306.066	291.694	304.872	315.090	315.687	315.615	296.636	286.132	310.172	229.217	268.179	107.487	113.407	127.445	113.932	104.192	103.548	103.571	122.097	132.888	108.442	189.229	151.008	43.262
125.000	312.034	306.138	292.124	304.825	314.708	315.424	315.663	296.755	286.323	310.435	229.265	268.704	107.248	113.383	127.373	113.932	104.168	103.524	103.548	122.002	132.721	108.298	189.253	150.721	46.556
126.000	311.819	306.161	292.148	304.657	314.517	315.377	315.830	296.755	286.418	310.865	229.002	268.513	107.320	113.336	127.206	113.909	104.097	103.524	103.643	122.049	132.864	108.346	189.158	150.554	41.638
127.000	312.082	306.543	291.909	305.159	315.042	315.377	315.400	296.684	286.132	310.506	229.528	268.967	107.152	113.383	127.182	113.765	104.168	103.619	103.667	122.049	132.840	108.465	189.205	150.483	35.637
128.000	312.201	306.615	292.386	304.944	314.637	315.496	315.735	296.684	286.466	310.578	229.313	269.062	107.272	113.288	127.087	113.861	104.264	103.571	103.667	122.073	132.888	108.394	189.182	150.244	37.623
