-----------------------------------------------------
BloodHound 307 VOC Analyser V2017.1
RoboScientific Ltd 
Espace North
Wisbech Road
Littleport
Cambridgeshire, UK
CB6 1RA 
-----------------------------------------------------
Date = 21/04/2022
Time = 11:28:23
Data is protected by RoboScientific Limited
-----------------------------------------------------
Name of the experiment = "44b_Day 30"
-----------------------------------------------------
Repeat No. = 3/4
-----------------------------------------------------
Experimental Time (in sec) and Flow Profile :
-----------------------------------------------------
Baseline = 2.00
Absorb = 4.00
Pause = 1.00
Desorb = 5.00
Flush = 20.00
Wait = 5.00
Higher Flow (V) = 4.00
Medium Flow (V) = 3.00
Low Flow (V) = 1.00
-----------------------------------------------------
Total Profile Time = 37 in sec
-----------------------------------------------------
Acquired data point per second = 4
--------------------------------------------------
Total data point stored  = 128
-----------------------------------------------------
Acquired sensor responses from 24 sensors
-----------------------------------------------------

Data Points	 Sen-1	 Sen-2	 Sen-3	 Sen-4	 Sen-5	 Sen-6	 Sen-7	 Sen-8	 Sen-9	 Sen-10	 Sen-11	 Sen-12	 Sen-13	 Sen-14	 Sen-15	 Sen-16	 Sen-17	 Sen-18	 Sen-19	 Sen-20	 Sen-21	 Sen-22	 Sen-23	 Sen-24	Humidity (%r.h.)
0.000	303.798	264.264	249.916	303.440	313.061	313.777	315.162	302.795	290.071	302.509	228.382	221.960	115.699	154.995	169.295	115.126	106.054	105.314	104.431	116.153	128.710	116.487	189.802	197.299	41.367
1.000	303.965	263.858	249.916	303.703	312.774	313.801	314.828	302.580	290.119	302.461	228.525	221.697	115.556	155.425	168.913	115.198	105.935	105.052	104.288	116.105	128.830	116.344	189.850	197.251	40.916
2.000	303.846	263.261	250.512	303.726	312.798	313.658	314.875	302.628	290.214	302.533	228.740	222.103	115.723	156.021	168.841	115.102	106.078	105.266	104.311	116.129	128.806	116.296	189.826	197.394	39.788
3.000	304.252	262.688	250.512	303.679	312.894	313.777	315.138	302.843	289.975	302.389	228.764	221.578	115.890	156.451	168.627	115.007	105.911	105.171	104.288	116.033	128.758	116.296	189.826	197.466	39.247
4.000	303.965	262.640	250.441	303.321	312.727	313.920	314.732	302.748	290.357	302.986	228.358	221.864	115.532	156.594	168.459	114.959	105.887	105.171	104.240	116.177	128.806	116.177	189.850	197.609	39.382
5.000	304.275	262.521	250.894	303.726	313.013	313.992	314.708	302.676	290.214	302.557	228.286	221.673	115.341	157.096	168.531	114.864	106.006	105.147	104.335	116.177	128.782	116.129	189.826	197.585	40.555
6.000	304.275	262.067	250.918	303.583	313.037	313.801	315.186	302.676	290.429	302.748	228.453	221.291	115.556	157.430	168.340	114.864	105.935	105.219	104.311	116.129	128.877	116.153	189.802	197.752	41.232
7.000	304.156	261.518	250.632	303.703	312.989	314.040	314.804	302.867	290.119	302.509	228.597	221.363	115.413	157.740	168.125	114.840	105.887	105.147	104.407	116.177	128.853	116.129	189.755	197.872	41.007
8.000	304.395	261.661	251.085	303.583	312.894	313.896	314.828	302.676	290.262	302.795	228.573	221.291	115.389	158.313	168.077	114.816	105.887	105.171	104.335	116.081	128.877	116.177	189.802	197.943	40.059
9.000	304.037	260.468	251.372	303.917	313.013	313.801	314.660	302.604	289.975	302.366	228.262	221.172	115.126	158.528	167.910	114.768	105.863	105.075	104.335	116.057	128.806	116.033	189.802	197.967	39.427
10.000	302.676	281.357	250.608	303.655	312.679	313.658	314.851	302.604	290.262	302.103	228.406	251.324	116.726	138.451	168.030	114.911	105.887	105.171	104.216	116.200	128.806	117.155	189.946	168.937	39.202
11.000	271.139	302.676	248.149	302.509	312.440	313.109	314.422	301.411	291.050	289.737	226.472	282.837	148.907	117.299	170.704	116.033	106.221	105.577	104.407	117.132	128.209	129.784	191.473	138.212	40.104
12.000	229.480	313.682	240.175	299.787	311.700	312.225	314.159	299.525	291.312	248.531	225.421	298.546	190.542	105.983	179.990	118.468	106.675	106.484	104.741	119.137	127.875	171.348	192.906	121.596	47.233
13.000	254.165	321.011	230.077	296.779	310.936	311.199	313.849	296.875	291.384	220.647	225.087	308.716	163.780	99.107	189.874	121.715	107.606	107.391	105.195	121.691	127.755	197.418	193.694	111.450	49.895
14.000	277.084	324.568	234.637	292.434	309.862	309.981	313.156	294.129	291.002	236.952	224.061	315.472	141.435	94.762	183.738	125.965	108.465	108.418	105.625	124.413	128.018	181.017	194.434	104.670	41.548
15.000	292.983	327.289	245.690	287.110	309.241	308.668	312.631	291.241	290.047	251.778	223.726	319.650	126.323	92.255	170.322	130.906	109.397	109.659	106.365	127.158	128.471	166.000	194.816	100.659	31.577
16.000	304.204	329.438	256.600	281.954	307.880	307.307	312.010	288.113	289.689	263.523	223.010	323.685	114.362	90.489	159.817	136.803	110.471	111.139	107.081	130.763	129.259	154.541	195.556	97.961	29.727
17.000	312.416	330.894	264.980	275.460	306.543	305.780	311.079	284.102	288.662	272.930	222.628	325.571	106.102	89.056	149.719	143.368	111.951	112.834	107.916	134.607	130.095	144.872	195.723	95.383	37.848
18.000	318.098	332.160	271.879	268.871	305.398	304.395	309.862	279.638	287.469	280.736	222.318	326.836	100.635	88.078	141.602	150.053	113.240	114.649	109.229	139.477	131.097	137.209	196.344	93.950	49.850
19.000	323.112	332.709	277.537	262.091	303.655	301.960	308.740	274.672	286.633	287.301	222.175	327.552	96.457	87.123	134.750	156.188	114.887	116.559	110.471	144.109	132.196	131.050	196.153	92.876	53.369
20.000	325.738	333.306	282.551	255.598	302.198	299.668	306.663	269.277	285.845	292.005	222.103	329.247	93.354	86.359	129.402	162.873	116.988	118.731	112.190	149.671	133.007	126.275	196.606	91.969	44.030
21.000	327.385	334.237	286.633	248.817	300.074	297.328	304.777	263.476	284.651	295.442	222.246	330.751	91.706	86.048	124.962	169.677	118.683	121.095	114.076	155.186	134.177	122.217	196.893	90.632	32.163
22.000	329.653	334.404	289.689	242.992	297.949	294.463	302.580	257.818	283.076	299.262	221.936	330.990	89.749	86.144	121.357	176.314	120.951	124.150	116.296	161.250	135.514	118.707	196.415	89.773	28.148
23.000	330.727	334.905	292.864	236.451	295.777	291.742	300.193	252.422	281.834	302.939	221.817	331.634	88.841	84.998	118.755	182.258	123.625	127.349	119.018	167.648	136.732	115.771	196.773	89.032	35.953
24.000	332.040	334.857	295.371	231.270	293.127	288.495	296.922	246.454	280.760	305.660	221.458	331.324	87.863	85.547	116.678	188.609	126.108	130.214	122.431	173.473	137.997	112.524	196.940	88.245	49.083
25.000	331.945	335.406	296.851	226.711	290.023	285.057	293.103	240.223	279.543	307.427	222.055	331.563	87.146	85.237	114.386	192.691	129.259	133.509	125.798	178.940	139.095	110.877	196.726	87.934	54.226
26.000	332.398	335.120	298.092	225.612	287.946	284.293	291.264	239.196	278.970	307.737	221.578	332.351	87.003	85.380	113.550	194.052	131.336	134.678	128.066	180.730	139.549	110.972	196.917	88.436	45.112
27.000	332.661	336.051	298.164	225.708	287.182	284.461	289.832	239.626	279.304	307.045	221.530	331.849	87.433	85.022	113.431	194.267	132.076	134.607	128.997	180.134	139.573	111.283	196.845	87.863	32.930
28.000	332.685	335.120	298.450	225.660	286.585	284.532	289.951	240.438	279.519	307.069	221.745	332.112	86.812	84.926	113.813	194.219	132.411	134.010	129.331	179.513	139.405	112.023	197.227	89.247	27.877
29.000	332.470	335.836	298.403	225.636	286.538	285.057	289.522	240.748	279.423	306.114	222.151	332.398	86.836	85.308	112.930	194.386	132.602	133.867	129.808	178.964	139.262	112.070	197.108	88.436	35.637
30.000	333.544	335.788	299.119	225.039	285.893	283.864	288.567	239.220	279.065	307.427	221.769	331.754	86.072	85.046	112.930	194.625	133.652	135.299	131.002	180.516	139.716	110.710	197.108	88.459	48.812
31.000	333.640	335.693	300.026	224.085	283.243	280.354	285.392	234.923	278.253	309.623	221.769	333.091	85.833	84.855	111.879	194.768	135.562	137.878	134.034	184.407	140.814	108.919	197.036	88.078	54.542
32.000	333.568	336.123	300.671	225.016	280.545	277.251	281.429	230.530	276.917	311.294	221.745	332.446	85.666	84.664	110.924	192.691	138.283	141.244	137.710	189.110	142.246	107.487	196.773	88.340	46.827
33.000	332.971	335.287	301.984	227.403	278.253	274.816	278.349	230.411	276.463	309.838	221.840	332.351	86.478	84.926	110.113	190.518	141.220	143.846	140.814	189.205	142.342	108.633	196.582	88.841	34.329
34.000	332.279	335.239	302.389	227.809	276.200	274.290	277.179	235.114	277.466	306.520	221.745	330.632	88.125	85.810	109.755	189.946	142.939	144.252	141.936	184.168	141.100	112.357	197.012	89.605	27.606
35.000	330.226	334.690	302.724	227.475	276.129	275.603	278.277	241.106	279.423	301.626	221.649	329.796	89.486	84.616	109.778	190.423	143.273	143.321	141.005	178.080	139.214	117.155	196.320	90.513	34.058
36.000	328.937	334.738	303.273	226.424	276.702	277.131	280.044	247.457	281.166	294.654	222.390	327.671	91.420	85.714	109.206	191.617	142.652	141.387	138.785	170.942	137.472	124.413	196.248	91.014	46.195
37.000	326.669	333.831	302.151	224.514	277.776	279.399	282.742	254.332	282.670	287.182	222.724	325.427	92.900	86.359	110.017	193.550	141.459	139.549	136.612	164.831	135.968	132.864	195.651	93.759	53.820
38.000	323.732	333.138	302.246	223.368	279.352	281.620	285.344	260.515	284.580	278.206	223.130	323.494	95.669	86.287	110.519	195.484	139.716	137.042	133.867	158.767	134.750	141.650	195.078	96.075	48.993
39.000	320.533	332.876	301.769	224.108	281.357	283.768	288.089	265.720	285.702	267.391	223.774	320.533	99.107	87.027	111.235	195.556	137.782	134.559	130.906	153.300	133.437	151.867	194.696	98.725	36.495
40.000	316.833	332.207	301.053	226.257	283.171	285.988	290.596	269.922	286.490	255.765	224.252	317.645	102.998	87.457	111.402	193.383	135.705	132.554	128.185	148.859	132.506	163.494	194.100	102.043	29.140
41.000	312.321	332.160	300.312	229.838	285.057	288.328	293.437	274.028	287.206	243.852	224.443	313.896	107.463	88.173	112.524	189.205	133.676	130.357	125.678	144.825	131.599	174.905	193.670	105.147	33.652
42.000	306.639	331.133	298.665	234.207	287.301	290.071	295.609	277.275	287.683	231.557	224.992	310.697	112.428	88.340	113.383	184.622	131.670	128.591	123.267	141.315	131.002	187.105	193.455	109.277	44.075
43.000	299.668	330.847	297.400	238.456	289.498	292.076	298.307	280.044	288.376	220.289	225.183	306.973	119.423	89.176	114.482	180.468	129.570	126.729	121.285	138.665	130.811	198.492	193.145	112.619	51.294
44.000	292.888	330.059	296.827	243.589	290.882	293.795	300.456	282.789	288.185	223.321	225.708	303.631	126.753	89.916	116.296	175.526	127.731	125.010	118.898	135.872	130.310	196.296	192.858	116.033	48.000
45.000	283.601	328.603	294.750	247.743	293.174	295.824	302.055	285.105	288.734	232.488	225.780	299.501	135.729	90.918	117.919	170.751	125.893	123.148	117.036	133.700	130.190	186.317	192.739	119.710	38.931
46.000	273.503	328.149	292.983	252.160	294.726	297.113	303.559	286.752	288.877	240.796	225.947	296.779	146.042	91.133	120.116	166.072	124.174	121.548	115.556	131.885	129.975	177.675	192.524	123.577	32.118
47.000	263.094	326.979	290.835	256.529	296.564	299.023	304.681	288.567	289.020	248.221	225.875	293.222	155.950	92.208	122.527	161.870	122.408	119.734	114.171	130.166	129.713	169.963	192.333	126.872	33.066
48.000	253.425	325.714	288.662	260.635	297.495	300.241	306.090	289.856	289.044	255.335	226.162	289.546	166.239	93.545	124.867	157.860	120.904	118.230	113.025	128.710	129.713	163.374	192.285	129.975	41.142
49.000	243.756	324.735	285.463	265.051	299.334	301.888	307.140	291.312	288.901	261.566	226.806	286.323	175.335	94.762	127.875	153.730	119.519	116.893	111.927	127.397	129.498	157.502	191.855	132.864	47.684
50.000	234.756	324.496	281.954	268.656	300.623	303.607	307.928	292.363	289.641	267.105	226.400	283.267	184.741	95.502	131.551	149.576	117.872	115.198	111.092	126.227	129.379	151.629	191.832	136.708	47.368
51.000	227.498	323.016	278.253	272.906	302.151	304.944	308.883	293.365	289.259	271.688	226.281	280.354	192.309	96.815	135.777	146.018	116.845	113.956	110.256	125.272	129.331	146.973	191.641	140.074	41.052
52.000	221.530	321.822	273.908	275.508	303.106	305.756	309.575	294.320	289.617	275.603	226.735	276.821	198.158	97.603	140.575	142.700	115.460	112.954	109.540	124.389	129.355	143.177	191.736	143.177	34.915
53.000	219.047	321.226	269.540	278.564	304.443	306.639	309.814	295.180	289.426	278.349	226.830	273.765	200.354	98.606	145.254	139.644	114.434	111.927	108.919	123.553	129.426	140.313	191.593	145.899	34.600
54.000	220.193	320.127	264.717	280.951	305.039	307.379	310.650	295.729	289.689	280.951	226.687	270.996	199.638	99.704	149.838	137.400	113.550	111.163	108.346	122.933	129.450	137.854	191.426	148.716	39.472
55.000	224.037	319.101	260.372	283.195	305.660	308.167	310.888	296.159	289.665	282.837	226.997	268.561	195.914	100.563	154.923	135.538	112.906	110.471	107.940	122.288	129.522	136.206	191.330	150.984	45.609
56.000	229.050	318.552	255.454	284.914	306.496	308.668	311.509	296.875	289.737	284.795	226.926	266.388	190.900	101.303	160.175	133.652	112.261	110.137	107.773	121.811	129.211	134.153	191.259	153.228	45.834
57.000	234.732	317.740	251.038	286.514	307.045	309.217	311.605	297.066	289.355	286.179	227.236	264.025	184.932	102.593	164.783	131.861	111.903	109.707	107.463	121.572	129.164	132.840	191.091	155.377	41.683
58.000	240.438	316.690	246.764	288.137	307.331	309.599	312.010	297.519	289.737	287.421	227.116	262.019	179.179	103.285	169.605	130.525	111.044	109.158	107.152	121.023	129.355	131.527	191.044	157.382	37.081
59.000	245.762	315.639	243.494	289.164	307.737	309.981	312.345	298.092	289.617	288.686	227.260	260.587	173.712	103.929	173.783	129.211	110.781	108.847	106.985	120.665	129.259	130.286	191.044	159.340	35.818
60.000	250.393	315.090	239.769	290.357	308.453	310.363	312.774	298.426	289.522	289.641	227.140	258.558	169.223	104.479	177.340	128.280	110.351	108.489	106.627	120.474	129.235	129.474	191.068	160.796	39.157
61.000	254.738	314.207	236.451	291.599	308.692	310.697	312.631	298.832	289.784	290.620	227.689	256.863	164.878	105.386	180.874	127.111	110.113	108.418	106.556	120.187	129.116	128.495	191.044	162.563	44.345
62.000	259.107	313.562	233.634	292.219	309.408	310.888	312.631	298.737	289.593	291.145	227.403	255.216	160.724	106.532	183.738	126.156	109.826	108.036	106.293	119.949	129.307	127.851	191.044	164.186	44.571
63.000	262.019	313.013	231.939	293.341	309.217	310.984	312.965	299.214	289.569	292.052	227.546	253.759	157.143	107.057	186.746	125.583	109.373	107.821	106.174	119.543	129.164	127.039	190.853	165.953	41.954
64.000	265.600	312.321	229.647	293.986	309.480	310.936	313.324	299.429	289.546	292.816	227.689	252.422	154.135	107.511	189.182	124.795	109.301	107.534	106.006	119.376	129.211	126.347	191.044	167.409	38.074
65.000	268.107	311.247	228.262	294.105	309.790	311.318	313.013	299.549	289.713	293.246	227.570	250.680	151.509	108.394	190.948	124.150	109.015	107.415	105.887	119.304	129.140	125.798	190.829	168.603	36.946
66.000	270.208	310.888	227.284	294.989	309.957	311.366	313.276	299.525	289.999	293.461	227.689	249.892	149.265	108.871	192.309	123.625	108.871	107.367	105.815	119.161	129.140	125.272	190.733	169.796	38.931
67.000	272.524	310.124	226.567	295.681	310.172	311.557	313.514	299.954	289.737	293.986	227.451	248.412	147.236	109.635	193.622	123.219	108.537	107.248	105.815	118.922	129.068	124.819	190.829	170.799	43.533
68.000	274.362	309.695	226.567	295.896	310.196	311.461	313.371	300.121	290.071	294.535	227.260	247.170	145.302	110.232	194.267	122.694	108.585	107.152	105.720	118.779	129.140	124.317	190.805	172.017	43.759
69.000	275.985	309.074	226.066	296.039	310.387	311.843	313.658	300.121	289.856	294.845	227.355	246.454	143.368	110.781	194.553	122.145	108.036	106.961	105.625	118.803	129.283	124.174	190.733	173.019	41.638
70.000	277.585	308.549	226.257	297.042	310.578	311.724	313.777	300.456	289.546	294.893	227.857	245.260	142.175	111.641	194.314	121.835	108.179	106.890	105.505	118.683	129.283	123.792	190.757	174.070	38.931
71.000	278.826	307.546	226.758	297.137	310.626	312.369	313.705	300.169	289.975	295.275	227.427	244.353	140.527	111.951	194.219	121.381	108.155	106.866	105.434	118.564	129.092	123.362	190.662	174.858	37.668
72.000	280.474	306.973	227.355	297.567	310.697	312.154	313.944	300.384	289.904	295.872	227.594	243.589	139.453	112.667	193.885	121.190	108.083	106.627	105.338	118.468	129.116	123.076	190.686	175.860	38.886
73.000	281.285	306.543	227.713	297.782	311.056	312.201	313.705	300.336	289.880	296.087	227.618	242.563	138.092	113.216	193.336	120.904	107.845	106.579	105.338	118.349	129.092	122.909	190.733	176.672	42.947
74.000	282.670	305.851	228.239	297.806	311.079	312.201	313.944	300.647	289.713	296.493	227.713	242.300	137.281	113.646	192.357	120.522	107.701	106.532	105.314	118.277	129.164	122.766	190.662	177.484	44.165
75.000	283.410	305.111	229.122	298.474	310.697	312.201	313.753	300.694	289.832	296.469	227.904	241.035	136.278	114.386	191.497	120.283	107.630	106.388	105.171	118.039	129.068	122.360	190.590	178.295	42.089
76.000	284.365	305.039	229.313	298.450	311.294	312.273	313.825	300.718	289.951	296.779	227.522	240.390	135.299	114.983	191.068	120.140	107.701	106.412	105.219	117.991	129.116	122.169	190.590	178.892	39.518
77.000	285.344	304.299	230.316	298.737	311.127	312.369	313.825	300.575	289.737	296.946	227.546	239.578	134.368	115.436	190.280	119.781	107.463	106.221	105.147	118.086	129.140	121.715	190.542	179.584	37.984
78.000	285.893	303.488	230.841	298.856	311.414	312.703	313.968	300.814	290.071	297.304	227.689	239.387	133.747	116.248	189.420	119.590	107.463	106.197	105.171	117.967	129.044	121.596	190.566	180.205	39.112
79.000	286.800	302.533	231.509	299.047	311.270	312.416	313.944	301.267	289.975	297.161	227.737	238.552	132.649	116.726	188.895	119.471	107.439	106.197	105.147	117.872	128.901	121.453	190.471	180.778	41.999
80.000	287.898	302.533	232.202	299.095	311.533	312.870	314.087	301.076	289.808	297.734	227.880	237.716	132.196	117.060	188.036	119.328	107.320	106.221	105.052	117.752	129.140	121.285	190.471	181.423	43.623
81.000	288.400	302.246	232.846	299.549	311.342	312.631	313.801	301.100	289.951	297.782	228.048	237.334	131.432	117.872	187.367	119.018	107.224	105.983	105.099	117.704	128.973	120.999	190.447	182.139	42.044
82.000	288.877	301.435	233.085	299.501	311.485	312.655	313.849	301.267	289.928	298.212	228.119	236.690	130.835	118.540	186.746	118.827	107.176	105.959	105.004	117.776	129.068	120.760	190.542	182.807	39.653
83.000	289.426	300.694	233.491	299.716	311.533	312.918	314.493	301.029	289.641	297.686	228.071	236.021	130.286	119.185	186.150	118.731	107.248	106.102	104.908	117.561	128.949	120.617	190.351	183.333	38.480
84.000	289.904	299.954	234.422	300.145	311.796	313.156	314.183	301.100	289.713	298.331	227.928	235.663	129.570	119.590	185.338	118.516	107.200	105.959	105.075	117.585	128.901	120.617	190.280	183.643	39.066
85.000	290.190	299.668	235.114	300.289	311.628	313.156	314.278	301.387	289.832	298.331	228.048	235.424	129.188	120.140	184.956	118.468	107.057	106.078	105.052	117.490	129.020	120.569	190.160	183.977	41.187
86.000	290.620	298.952	235.233	300.408	311.963	312.727	314.111	301.076	289.928	298.498	227.809	234.947	128.925	120.569	184.431	118.373	107.081	105.863	104.741	117.561	129.044	120.378	190.399	184.311	43.262
87.000	291.694	298.689	236.069	300.074	311.939	313.324	314.541	301.506	290.047	298.999	227.857	234.971	128.495	121.047	183.858	118.182	107.033	105.839	104.884	117.442	129.116	120.402	190.423	184.574	42.450
88.000	291.646	298.021	236.165	300.432	311.628	312.918	314.374	301.530	290.286	298.904	227.952	234.135	128.042	121.667	183.476	118.063	106.938	105.768	104.932	117.418	128.925	120.092	190.447	185.266	40.194
89.000	292.172	297.495	237.000	300.671	311.700	312.655	314.493	301.482	290.047	298.832	227.880	233.753	127.325	122.097	183.070	117.895	106.818	105.863	104.861	117.322	129.044	119.949	190.471	185.553	38.931
90.000	292.577	297.137	236.976	300.862	311.700	313.061	314.446	301.626	289.904	298.928	227.833	233.610	127.158	122.742	182.593	117.800	106.914	105.720	104.884	117.251	129.116	119.996	190.280	185.815	38.841
91.000	292.959	296.421	237.478	300.933	311.867	312.965	314.422	301.458	290.119	299.238	227.857	232.989	126.848	123.243	182.211	117.609	106.675	105.768	104.908	117.299	128.949	119.638	190.495	186.221	40.330
92.000	292.840	295.777	237.883	300.527	312.034	313.204	314.255	301.435	289.880	298.832	227.737	232.918	126.418	123.792	181.757	117.776	106.723	105.744	104.646	117.203	128.973	119.710	190.137	186.627	42.902
93.000	293.938	295.204	238.385	300.957	312.178	312.894	314.326	301.840	289.999	299.119	228.191	232.846	126.060	124.317	181.351	117.466	106.770	105.672	104.789	117.227	128.997	119.590	190.328	186.985	42.180
94.000	294.249	295.036	238.385	301.602	312.273	312.774	314.350	301.649	289.832	299.143	227.833	232.393	125.821	124.986	180.897	117.585	106.770	105.601	104.765	117.227	128.997	119.471	190.208	187.296	40.465
95.000	293.819	294.368	238.958	300.981	312.201	313.204	314.613	301.411	289.713	299.214	228.286	232.034	125.607	125.392	180.468	117.490	106.770	105.648	104.693	117.108	128.973	119.447	190.256	187.463	39.292
96.000	294.392	293.747	239.483	301.148	311.843	312.942	314.422	301.673	290.190	299.859	227.904	231.748	125.368	125.869	180.134	117.227	106.747	105.744	104.837	117.251	128.949	119.256	190.399	187.845	38.976
97.000	294.798	292.912	239.483	301.363	312.058	313.419	314.422	301.554	289.975	299.716	228.024	231.008	124.676	126.609	179.728	117.346	106.651	105.553	104.622	117.084	128.949	119.256	190.232	187.988	40.014
98.000	294.965	292.983	239.913	301.817	312.273	313.061	314.255	301.506	289.784	299.477	228.167	231.199	124.747	127.182	179.680	117.227	106.723	105.648	104.670	116.964	129.020	119.376	190.065	188.418	42.495
99.000	295.323	291.718	239.937	301.411	311.891	313.324	314.207	302.031	290.142	299.811	228.191	230.698	124.246	127.540	179.274	117.036	106.532	105.553	104.693	117.132	129.044	119.137	190.280	188.632	42.315
100.000	295.800	292.005	240.748	301.315	312.488	313.156	314.541	301.793	290.071	300.074	227.952	230.339	124.103	128.161	178.868	116.964	106.675	105.625	104.717	117.060	128.925	119.065	190.304	188.800	40.420
101.000	295.753	291.527	240.724	301.267	312.130	313.395	314.589	301.626	289.951	300.074	227.952	230.316	123.888	128.662	178.462	116.964	106.627	105.505	104.646	116.964	128.949	119.018	190.041	189.134	39.247
102.000	296.421	290.500	241.488	301.769	312.631	313.467	314.493	301.649	289.975	299.883	228.310	230.077	123.577	128.925	178.295	116.869	106.532	105.648	104.646	116.988	128.949	118.827	190.137	189.420	39.066
103.000	295.968	290.214	241.894	301.554	312.010	313.156	314.302	301.888	289.975	300.098	227.976	229.790	123.315	129.522	177.913	116.750	106.388	105.505	104.646	116.869	129.020	118.755	190.017	189.492	39.879
104.000	296.373	289.880	242.085	301.578	312.106	313.276	314.756	301.960	289.904	300.265	228.071	229.575	123.195	130.095	177.722	116.917	106.651	105.601	104.431	116.750	128.973	118.827	190.160	189.755	42.180
105.000	297.304	289.092	241.942	301.912	312.488	313.658	314.589	302.055	290.023	300.312	228.119	229.575	123.052	130.310	177.412	116.893	106.579	105.386	104.550	116.773	128.949	118.707	190.208	189.969	42.360
106.000	296.684	288.638	242.419	301.984	312.392	313.228	314.302	301.912	290.238	300.408	228.239	229.098	122.837	131.288	177.078	116.726	106.412	105.457	104.646	116.893	128.925	118.659	190.160	190.208	40.646
107.000	297.233	288.328	242.539	301.793	312.178	313.300	314.804	302.103	290.071	300.289	228.119	228.740	122.622	131.479	176.672	116.606	106.436	105.553	104.741	116.893	128.997	118.540	190.160	190.113	39.247
108.000	297.113	287.445	242.395	302.318	312.464	313.085	314.446	301.769	289.880	300.432	228.119	228.955	122.455	132.172	176.624	116.606	106.388	105.505	104.526	116.821	128.925	118.421	190.184	190.614	39.112
109.000	297.710	287.397	243.088	302.246	312.560	313.562	314.565	301.960	289.951	300.694	228.048	228.764	122.288	132.625	176.314	116.726	106.508	105.553	104.646	116.750	128.997	118.468	190.065	190.829	39.924
110.000	297.758	286.490	242.945	301.864	312.560	313.204	314.660	302.007	290.214	300.623	228.358	228.239	121.882	132.888	176.099	116.559	106.412	105.410	104.574	116.750	128.925	118.254	190.113	190.900	41.774
111.000	297.877	286.012	243.732	302.127	312.273	313.204	314.493	301.769	289.975	300.671	228.095	228.071	121.596	133.318	175.956	116.511	106.293	105.386	104.502	116.726	128.949	118.301	190.137	191.187	42.225
112.000	298.283	285.487	243.756	302.366	312.440	313.538	314.374	301.984	290.071	300.623	228.191	228.024	121.429	133.867	175.741	116.415	106.365	105.386	104.526	116.750	128.949	118.182	190.137	191.330	40.600
113.000	298.045	285.654	243.709	302.533	312.392	313.395	314.374	302.031	289.760	300.527	227.976	227.809	121.476	134.249	175.669	116.224	106.269	105.266	104.455	116.726	128.973	118.206	190.017	191.569	39.157
114.000	298.259	284.484	244.043	302.604	312.631	313.443	314.517	301.840	289.880	300.599	228.239	227.642	121.238	134.893	175.263	116.296	106.436	105.362	104.526	116.773	128.901	118.254	190.065	191.736	39.247
115.000	298.737	284.126	244.234	302.676	312.655	313.419	314.541	302.103	289.975	300.742	228.167	227.403	121.095	135.419	174.881	116.081	106.341	105.362	104.574	116.750	128.901	117.991	190.065	191.927	39.788
116.000	298.212	283.768	244.353	302.604	312.655	313.658	314.374	301.864	289.832	300.575	228.191	226.806	120.880	135.777	174.690	116.177	106.245	105.362	104.550	116.678	128.925	118.086	189.969	191.999	41.593
117.000	299.143	283.171	244.592	302.795	312.321	313.324	314.684	302.031	289.713	300.814	228.071	227.069	120.713	136.206	174.547	116.153	106.269	105.481	104.479	116.750	129.044	118.039	190.017	192.118	42.225
118.000	299.023	283.243	244.616	302.580	312.703	313.491	314.708	301.984	290.429	300.981	228.310	227.164	120.617	136.708	174.332	116.057	106.245	105.338	104.479	116.702	128.901	117.872	189.946	192.381	41.007
119.000	298.999	282.551	244.998	302.270	312.416	313.538	314.589	302.055	289.975	300.718	228.334	226.830	120.426	137.185	174.213	116.105	106.269	105.410	104.407	116.511	128.734	117.872	190.137	192.619	39.653
120.000	299.405	282.025	245.404	302.795	312.918	313.491	314.589	301.984	290.023	300.885	228.262	226.758	120.402	137.639	174.094	115.962	106.197	105.266	104.526	116.678	128.973	117.752	189.969	192.858	39.292
121.000	299.143	281.667	245.499	302.580	312.273	313.538	314.613	302.151	289.928	300.981	228.191	226.376	120.259	137.878	173.950	115.842	106.269	105.266	104.479	116.582	128.997	117.824	189.874	192.858	39.247
122.000	299.381	281.429	245.547	302.724	312.369	313.682	314.517	302.318	290.310	301.220	228.453	226.185	120.116	138.188	173.640	115.914	106.317	105.314	104.455	116.511	128.877	117.776	189.969	193.001	40.916
123.000	299.405	280.879	246.024	302.748	312.488	313.300	314.517	302.175	290.047	301.387	228.119	225.994	119.877	138.546	173.592	115.938	106.197	105.362	104.622	116.559	128.949	117.728	190.184	193.240	42.089
124.000	299.859	280.545	246.167	302.509	312.440	313.514	314.589	302.342	290.214	301.530	228.358	226.090	119.614	139.000	173.497	115.747	106.174	105.266	104.502	116.559	128.830	117.537	190.089	193.336	41.277
125.000	299.740	279.686	246.311	302.962	312.798	313.562	314.422	302.079	289.928	301.029	228.239	225.756	119.614	139.811	173.186	115.795	106.150	105.219	104.479	116.559	128.853	117.561	189.946	193.455	39.833
126.000	300.074	279.447	246.096	302.628	312.703	313.801	314.708	302.175	289.689	301.148	228.143	225.684	119.590	139.978	172.995	115.914	106.245	105.338	104.550	116.511	128.901	117.442	189.946	193.503	39.382
127.000	299.907	279.161	246.454	302.915	312.703	313.300	314.517	302.557	290.190	301.769	228.119	225.445	119.328	140.289	172.876	115.723	106.197	105.290	104.550	116.559	128.901	117.490	190.113	193.670	39.157
128.000	300.312	278.803	246.406	302.867	312.631	313.849	314.732	302.222	290.190	301.578	228.095	225.612	119.376	140.742	172.470	115.818	106.245	105.266	104.383	116.487	128.853	117.394	189.946	193.765	40.646
