-----------------------------------------------------
BloodHound 307 VOC Analyser V2017.1
RoboScientific Ltd 
Espace North
Wisbech Road
Littleport
Cambridgeshire, UK
CB6 1RA 
-----------------------------------------------------
Date = 24/02/2021
Time = 11:53:37
Data is protected by RoboScientific Limited
-----------------------------------------------------
Name of the experiment = "2047N"
-----------------------------------------------------
Repeat No. = 1/5
-----------------------------------------------------
Experimental Time (in sec) and Flow Profile :
-----------------------------------------------------
Baseline = 2.00
Absorb = 4.00
Pause = 1.00
Desorb = 5.00
Flush = 18.00
Wait = 5.00
Higher Flow (V) = 4.00
Medium Flow (V) = 3.00
Low Flow (V) = 1.00
-----------------------------------------------------
Total Profile Time = 35 in sec
-----------------------------------------------------
Acquired data point per second = 4
--------------------------------------------------
Total data point stored  = 120
-----------------------------------------------------
Acquired sensor responses from 24 sensors
-----------------------------------------------------

Data Points	 Sen-1	 Sen-2	 Sen-3	 Sen-4	 Sen-5	 Sen-6	 Sen-7	 Sen-8	 Sen-9	 Sen-10	 Sen-11	 Sen-12	 Sen-13	 Sen-14	 Sen-15	 Sen-16	 Sen-17	 Sen-18	 Sen-19	 Sen-20	 Sen-21	 Sen-22	 Sen-23	 Sen-24	Humidity (%r.h.)
0.000	312.392	302.867	285.583	283.553	226.663	294.272	290.859	305.732	244.735	219.692	299.954	302.843	107.439	116.702	134.106	135.084	192.452	124.747	128.257	113.550	174.690	199.161	118.445	116.224	45.925
1.000	312.130	302.795	285.797	283.720	226.949	294.511	291.097	305.230	245.165	219.405	300.480	302.962	107.487	116.630	134.082	135.108	192.572	124.771	128.280	113.360	174.714	199.208	118.540	116.153	50.391
2.000	312.655	302.986	286.084	283.768	226.806	294.296	291.384	305.612	245.690	220.050	300.026	302.676	107.272	116.821	134.225	134.965	192.452	124.819	128.352	113.479	174.690	199.185	118.468	116.248	36.991
3.000	311.652	302.533	285.368	284.102	226.758	294.129	290.835	305.278	245.427	219.740	300.432	302.891	107.200	116.773	134.129	135.228	192.572	124.723	128.280	113.288	174.667	199.161	118.492	116.248	28.373
4.000	312.225	302.986	285.057	283.434	226.257	294.320	291.217	305.612	245.236	219.978	300.862	303.130	107.343	116.917	134.249	134.869	192.452	124.795	128.352	113.503	174.547	199.113	118.492	116.344	39.247
5.000	312.440	302.724	285.630	283.673	227.116	294.583	290.978	305.493	245.404	220.241	300.193	303.225	107.272	116.845	134.010	134.965	192.572	124.819	128.233	113.479	174.619	199.256	118.468	116.248	51.294
6.000	312.536	302.724	285.511	283.720	226.735	294.631	291.264	305.636	245.666	220.098	300.647	302.748	107.343	116.893	134.249	134.846	192.500	124.795	128.328	113.574	174.571	199.161	118.421	116.344	43.894
7.000	312.703	302.939	285.965	283.768	226.926	294.129	291.408	305.493	245.714	219.787	300.360	302.819	107.248	116.702	134.129	135.156	192.476	124.867	128.280	113.383	174.499	199.185	118.397	116.153	29.411
8.000	312.249	303.225	285.797	283.553	226.424	294.201	291.217	305.302	245.236	220.074	301.220	303.607	107.415	116.702	134.082	135.180	192.548	124.747	128.233	113.383	174.499	199.185	118.468	116.296	32.885
9.000	312.942	302.700	285.344	283.768	226.424	294.678	291.551	305.684	245.499	220.265	300.742	303.130	107.343	116.869	134.058	135.060	192.476	124.819	128.161	113.383	174.523	199.161	118.397	116.177	47.684
10.000	310.769	302.652	285.559	283.911	226.902	294.225	291.217	305.302	245.022	220.074	299.978	303.034	107.869	116.893	134.082	135.132	192.548	124.771	128.161	113.312	174.714	199.113	118.445	116.153	49.128
11.000	301.840	302.031	285.487	284.150	226.902	293.962	290.548	305.254	244.067	219.644	299.907	302.724	117.848	117.418	133.962	135.132	192.214	124.986	128.424	113.574	175.717	199.638	118.779	116.606	34.780
12.000	286.633	298.761	284.890	283.434	227.451	293.174	290.333	305.087	241.393	218.594	298.976	300.289	132.745	120.426	134.106	134.917	191.760	126.108	129.068	113.813	178.033	200.330	119.543	118.779	29.095
13.000	270.877	294.082	284.938	283.291	227.809	291.551	289.307	304.968	238.600	217.806	296.851	296.803	148.239	124.962	134.511	134.989	191.473	127.445	130.525	114.410	181.017	201.524	121.285	121.739	41.954
14.000	254.356	289.402	284.461	283.458	227.928	289.116	286.538	303.917	235.019	216.278	293.007	293.962	164.305	129.737	134.655	134.917	191.259	129.761	132.721	115.007	184.765	202.598	125.678	124.843	50.391
15.000	240.820	285.678	284.962	283.768	228.358	285.511	282.598	302.557	230.984	215.466	288.280	291.145	179.704	134.535	135.275	135.060	191.068	133.389	136.875	116.964	188.895	203.768	130.310	127.946	41.187
16.000	227.498	280.044	283.816	283.195	228.334	281.954	277.442	300.169	227.880	214.583	283.147	287.516	192.548	139.262	135.610	135.466	191.044	137.591	142.604	119.232	191.426	204.580	135.228	131.503	30.268
17.000	218.785	275.198	284.007	282.861	228.310	277.680	270.805	296.875	228.048	214.416	278.015	283.792	201.453	144.132	136.087	135.801	190.757	141.005	148.119	121.524	190.900	204.866	140.599	135.228	36.404
18.000	225.565	269.874	283.028	282.431	228.621	274.410	264.646	294.511	231.557	214.893	272.906	280.116	194.458	149.289	136.708	136.302	190.829	144.849	154.684	124.365	187.200	204.150	146.066	139.501	46.962
19.000	234.159	265.624	282.025	281.261	228.191	270.781	258.558	292.052	235.042	215.681	267.319	275.723	186.078	154.398	137.305	137.185	190.805	148.597	160.868	127.063	183.738	202.909	151.509	143.464	44.390
20.000	240.963	260.253	281.214	279.972	228.358	267.105	252.948	289.737	239.960	217.877	262.425	271.736	179.441	159.435	138.140	138.212	190.972	152.249	166.932	129.808	179.513	201.357	157.358	147.451	34.780
21.000	246.669	254.619	279.829	278.564	227.522	263.046	247.290	287.278	243.828	219.501	255.669	267.391	173.306	164.783	139.405	139.620	191.330	155.854	172.160	132.100	175.120	199.113	163.160	151.796	34.329
22.000	252.661	249.725	278.635	277.418	227.307	258.892	241.417	284.484	247.743	221.960	249.916	262.831	166.717	169.558	140.432	140.886	191.712	160.342	177.913	134.846	170.871	196.845	169.009	156.165	42.586
23.000	257.507	245.332	277.776	276.224	226.472	254.834	236.403	282.049	251.467	224.395	244.043	258.773	162.419	174.881	141.817	141.817	192.333	164.449	183.118	137.519	167.457	194.744	175.096	160.629	45.067
24.000	262.807	239.841	276.367	275.723	225.756	250.369	231.199	279.304	256.003	226.353	238.600	254.953	157.287	179.847	143.010	142.939	193.168	168.985	188.513	140.313	163.876	192.237	181.136	164.711	39.427
25.000	264.025	235.281	274.147	274.601	224.920	246.191	226.353	276.105	259.083	229.146	232.178	250.441	154.875	184.479	144.872	143.989	194.290	173.592	192.977	143.249	161.417	189.993	186.675	169.032	35.682
26.000	264.096	236.069	273.813	274.840	223.989	244.831	225.326	277.704	258.916	229.766	231.652	251.109	155.353	183.834	145.684	143.512	195.054	174.285	194.362	141.769	161.106	189.229	187.558	168.316	39.292
27.000	263.142	237.621	273.550	275.198	223.965	245.308	226.209	278.707	258.558	230.507	231.772	252.136	157.024	182.497	145.732	143.225	195.245	174.070	194.052	140.551	161.297	188.370	187.152	167.242	44.120
28.000	262.425	238.337	274.028	275.675	223.607	245.666	226.424	279.662	257.913	231.390	232.202	252.757	157.716	181.757	145.589	142.819	195.604	173.950	193.718	139.668	161.130	187.725	186.961	166.741	42.044
29.000	262.354	238.528	273.932	275.938	223.440	245.451	226.281	279.853	258.916	231.867	231.796	252.852	157.812	181.638	145.613	142.628	195.556	173.950	193.837	139.453	160.653	187.176	187.296	166.382	36.179
30.000	267.319	234.470	273.097	274.887	222.652	243.709	223.488	277.489	261.327	233.467	228.453	250.536	152.607	184.837	146.329	143.321	196.153	175.693	195.627	141.554	157.645	185.290	190.495	169.223	37.352
31.000	267.701	230.268	271.569	273.598	222.366	239.292	220.599	273.431	264.980	235.687	222.724	246.072	152.775	189.492	147.713	144.610	197.060	179.752	199.447	145.589	154.661	183.452	196.200	173.521	42.811
32.000	246.454	239.459	270.399	272.428	221.291	235.568	220.050	270.208	267.845	237.334	220.122	253.926	173.115	179.537	149.098	145.875	197.967	184.025	199.590	149.122	152.440	182.234	199.041	164.759	42.856
33.000	240.271	253.401	268.418	271.139	219.811	231.652	222.581	268.680	269.731	236.737	222.103	264.240	180.468	166.669	151.080	147.379	199.089	187.964	197.155	150.793	150.316	182.115	197.513	155.353	38.299
34.000	261.757	265.409	267.248	270.065	218.832	228.835	224.849	268.561	269.850	236.475	226.711	273.121	158.361	154.446	152.560	148.382	200.163	190.566	194.744	150.292	149.910	182.378	191.999	146.400	34.103
35.000	275.675	274.505	265.768	270.304	218.021	227.212	226.615	270.877	270.375	235.329	234.470	279.662	144.825	145.541	154.207	149.217	201.309	192.834	192.786	148.286	149.958	183.452	184.479	139.692	40.330
36.000	284.270	280.903	264.025	269.086	217.352	226.066	228.000	273.622	268.441	234.326	242.324	284.317	134.631	138.856	155.759	149.623	202.097	193.598	191.784	145.350	151.080	184.837	175.980	134.750	47.684
37.000	291.909	286.084	263.309	269.301	216.755	226.997	228.000	277.131	266.364	232.416	250.775	288.018	127.946	133.724	156.976	149.671	202.551	192.810	191.664	141.769	152.751	186.341	167.481	130.811	41.819
38.000	296.493	289.355	261.566	269.349	216.206	228.310	227.403	280.521	263.905	230.435	258.582	290.811	123.553	130.119	157.812	149.408	203.028	191.211	192.046	138.737	155.281	188.179	160.128	128.376	31.080
39.000	300.121	292.434	261.256	269.850	216.421	230.626	226.257	284.246	261.232	229.098	265.839	292.912	119.376	127.564	158.313	148.931	203.028	188.776	193.359	135.013	158.289	189.993	152.918	126.371	35.457
40.000	302.246	294.034	261.518	270.757	216.612	234.255	224.061	286.824	256.720	227.475	271.569	294.559	117.299	125.368	158.528	148.167	202.909	185.314	195.556	131.957	162.061	191.736	147.284	124.676	47.413
41.000	304.275	296.254	261.805	271.879	216.994	237.692	221.864	289.617	253.664	225.827	276.749	295.872	115.389	124.079	158.361	147.021	202.431	181.327	198.110	129.331	165.809	193.336	142.366	123.744	47.052
42.000	306.066	296.922	262.115	272.452	217.519	241.942	219.668	291.909	249.558	223.655	280.617	296.875	113.646	122.909	158.098	146.114	201.835	177.388	200.092	127.111	169.796	195.054	138.116	122.431	33.742
43.000	307.140	298.235	263.046	273.932	217.949	247.027	220.336	293.819	245.380	222.294	283.744	296.970	113.097	121.882	157.143	144.920	201.142	172.876	199.137	125.034	173.831	196.630	134.655	121.882	30.494
44.000	308.071	298.808	263.762	275.078	218.976	251.396	223.965	295.681	241.870	221.029	286.251	297.710	112.428	121.071	155.806	143.679	200.235	168.245	195.245	123.577	177.675	198.277	132.291	121.262	43.217
45.000	308.692	299.620	264.789	275.794	220.145	255.144	228.788	296.970	238.265	219.214	288.901	298.617	111.450	120.593	154.875	142.819	199.423	163.327	190.208	122.049	180.969	199.758	130.214	120.617	50.527
46.000	309.456	299.692	266.317	276.105	220.838	259.775	234.207	298.116	235.424	217.949	290.405	299.095	110.805	120.140	153.371	141.817	198.564	159.125	185.195	120.951	183.977	201.166	128.519	120.235	40.555
47.000	309.456	300.121	267.773	277.895	221.864	263.571	239.578	298.976	232.679	216.899	291.360	299.190	110.519	119.781	151.915	141.220	197.800	155.735	179.752	120.092	186.460	202.455	127.206	120.020	28.869
48.000	309.766	300.289	269.158	278.540	222.342	267.725	245.427	299.596	230.721	216.039	292.625	299.453	109.922	119.447	150.912	140.527	197.179	152.345	174.619	119.376	188.704	203.482	125.941	119.543	36.765
49.000	310.029	300.432	270.375	279.137	222.843	270.017	249.677	300.265	228.812	215.228	293.676	300.384	109.755	119.256	149.528	139.811	196.630	148.788	169.390	118.683	190.065	204.126	125.225	118.564	50.121
50.000	309.671	300.480	271.712	279.590	223.034	273.455	254.380	300.599	228.644	214.631	294.654	300.169	109.635	119.065	147.928	139.167	196.105	145.732	164.473	118.158	191.139	204.699	124.413	119.232	45.338
51.000	310.459	300.551	273.073	279.757	223.607	276.200	259.346	301.936	227.904	214.440	294.869	300.074	109.778	118.898	146.735	138.498	195.436	143.583	160.390	117.657	191.402	204.747	124.079	118.970	30.945
52.000	311.032	301.124	273.670	280.450	224.228	278.468	263.380	302.246	228.573	214.368	295.562	300.336	109.373	118.827	145.732	138.164	195.269	140.766	156.451	117.203	191.282	204.866	123.362	118.946	31.712
53.000	310.745	301.435	274.911	280.784	224.490	279.948	266.317	302.318	228.788	214.631	295.753	300.742	109.373	118.659	144.944	137.878	195.102	139.143	153.061	116.845	191.091	204.652	122.861	118.731	46.466
54.000	310.888	301.530	275.866	280.927	224.586	281.620	269.134	302.676	229.289	215.180	296.349	300.360	109.206	118.731	143.989	137.591	194.816	137.472	150.220	116.559	190.662	204.437	122.527	118.516	49.895
55.000	310.339	301.291	276.702	281.214	224.729	282.909	271.354	302.437	229.671	215.180	296.899	301.244	108.609	118.540	143.154	137.448	194.696	136.063	147.809	116.415	190.137	204.174	122.384	118.516	37.081
56.000	311.199	301.626	277.776	282.073	225.039	284.389	273.503	302.867	230.483	215.514	296.755	300.814	108.895	118.349	142.318	137.185	194.625	135.180	145.827	116.224	189.540	203.983	122.002	118.468	28.554
57.000	310.769	301.435	277.657	281.261	225.016	285.224	275.245	303.153	231.652	215.562	297.257	301.100	108.728	118.373	141.912	136.946	194.338	134.249	144.085	115.962	188.800	203.601	121.882	118.277	39.157
58.000	311.605	301.339	278.182	281.476	224.801	286.227	276.606	303.106	231.915	216.063	297.161	301.076	108.728	118.230	141.220	136.708	194.267	133.461	142.843	115.723	187.988	203.291	121.667	118.254	50.978
59.000	311.223	301.984	278.874	281.930	225.230	286.585	278.086	303.344	232.822	216.039	297.161	301.029	108.728	118.254	140.862	136.732	194.243	132.673	141.554	115.508	187.439	203.004	121.381	118.158	43.398
60.000	310.721	301.673	279.184	281.667	225.159	287.349	279.041	303.368	233.252	216.517	297.949	301.602	108.465	118.349	140.504	136.469	194.171	132.005	140.337	115.556	186.937	202.813	121.238	118.015	29.682
61.000	310.912	301.769	279.829	282.527	225.016	287.779	280.259	303.893	233.825	216.755	297.830	301.244	108.561	118.206	140.026	136.397	194.100	131.503	139.429	115.365	186.174	202.622	121.095	117.967	33.427
62.000	311.366	301.960	279.925	282.479	225.421	288.471	280.999	303.583	234.207	217.114	297.710	301.482	108.680	117.919	139.620	136.469	193.980	130.883	138.761	115.317	185.696	202.336	120.951	117.872	47.549
63.000	311.605	301.817	280.307	282.813	225.589	289.164	281.643	303.703	234.613	217.209	297.806	301.244	108.656	117.704	139.238	136.397	193.813	130.716	138.021	115.126	185.242	202.240	121.023	118.039	48.767
64.000	311.318	301.840	281.047	282.240	225.302	289.092	282.336	303.870	235.568	217.305	297.973	301.291	108.298	117.848	139.167	136.183	193.765	130.310	137.257	115.150	184.765	202.169	120.689	117.728	34.464
65.000	311.079	301.626	281.238	282.216	225.469	289.426	282.789	303.798	235.711	217.424	297.973	301.458	108.370	117.967	138.809	136.111	193.765	129.880	136.684	115.102	184.431	201.906	120.641	117.919	29.276
66.000	310.888	301.769	281.190	282.384	225.230	289.665	283.386	304.061	236.260	217.400	298.498	301.482	108.012	117.895	138.785	136.183	193.861	129.641	136.374	114.983	183.906	201.882	120.569	117.752	41.954
67.000	311.605	301.817	281.476	282.598	225.254	290.023	283.888	304.443	236.260	217.281	298.140	301.387	108.251	117.848	138.379	135.968	193.646	129.331	135.729	115.031	183.691	201.715	120.450	117.609	51.339
68.000	311.748	302.198	281.596	282.885	225.899	290.095	284.365	304.084	236.737	217.615	298.164	301.411	108.418	117.728	138.236	135.992	193.718	129.116	135.395	114.864	183.476	201.596	120.474	117.657	41.638
69.000	311.199	301.697	281.715	282.455	225.732	290.500	284.771	304.275	237.263	217.758	298.331	302.055	108.083	117.776	138.045	135.968	193.598	128.877	134.941	114.911	183.094	201.548	120.402	117.513	28.644
70.000	311.199	302.127	281.834	282.670	225.708	290.620	284.723	304.108	237.860	217.639	298.379	302.079	108.274	117.824	137.806	136.039	193.646	128.686	134.678	114.792	182.688	201.476	120.283	117.848	35.186
71.000	311.915	301.578	281.405	282.598	225.803	290.596	285.296	304.586	237.382	217.949	298.594	301.769	108.609	117.537	137.591	135.920	193.598	128.615	134.368	114.816	182.402	201.214	120.307	117.633	49.354
72.000	311.628	301.793	281.930	282.431	225.517	290.620	285.559	304.443	238.671	217.854	298.689	302.127	107.916	117.633	137.687	135.968	193.550	128.448	134.010	114.673	181.972	201.262	120.283	117.466	46.917
73.000	311.891	302.055	282.551	282.694	225.684	291.097	285.511	304.466	238.480	217.877	298.737	301.602	108.394	117.800	137.305	135.872	193.479	128.257	134.010	114.720	181.829	201.071	120.259	117.466	32.118
74.000	311.819	302.222	282.431	282.837	225.732	291.455	286.108	304.729	238.409	218.140	298.546	301.721	107.940	117.585	137.424	135.992	193.479	128.185	133.700	114.840	181.805	201.071	120.140	117.370	30.358
75.000	311.605	301.864	282.431	282.598	225.636	291.193	286.347	304.777	238.743	218.283	298.570	301.721	107.654	117.609	137.328	135.848	193.646	127.779	133.461	114.625	181.423	201.023	120.044	117.299	44.661
76.000	311.772	302.533	282.575	283.291	225.756	291.455	286.275	304.634	238.719	218.403	298.856	301.745	108.155	117.585	137.209	135.920	193.479	127.875	133.246	114.601	181.208	201.071	120.116	117.394	50.617
77.000	311.915	302.748	282.694	282.813	225.756	291.909	286.824	304.490	239.101	218.570	298.403	301.626	108.083	117.466	136.994	135.801	193.431	127.684	133.079	114.577	181.232	200.999	120.068	117.299	38.841
78.000	312.273	302.079	282.789	283.338	225.708	291.861	287.063	305.016	239.029	218.641	298.737	301.578	108.012	117.322	136.851	135.872	193.407	127.636	132.840	114.529	181.017	200.736	120.044	117.370	28.193
79.000	311.724	302.413	282.670	283.386	225.971	291.742	287.230	304.514	239.459	218.498	298.617	301.626	107.964	117.394	136.827	135.848	193.479	127.636	132.745	114.386	180.802	200.760	119.710	117.251	37.713
80.000	311.987	301.960	282.813	282.765	225.923	292.052	287.158	304.490	239.531	218.474	298.880	301.960	107.725	117.466	136.755	135.920	193.383	127.516	132.434	114.601	180.516	200.736	119.805	117.155	50.752
81.000	311.270	302.198	282.980	282.813	225.923	291.694	287.134	304.657	239.913	218.498	298.928	301.793	107.940	117.466	136.636	135.824	193.431	127.397	132.243	114.482	180.301	200.665	119.805	117.442	44.390
82.000	312.345	302.366	283.625	283.338	225.780	292.028	287.588	304.777	240.533	218.594	298.665	301.602	108.060	117.418	136.421	135.610	193.312	127.397	132.267	114.458	180.277	200.689	119.949	117.299	29.952
83.000	312.034	302.437	283.744	283.147	225.851	291.981	287.755	304.825	240.509	218.546	298.928	301.649	108.036	117.537	136.612	135.824	193.359	127.158	132.076	114.529	179.990	200.784	119.853	117.155	32.434
84.000	311.438	302.437	283.124	282.933	225.660	292.291	287.516	304.610	240.271	218.546	299.190	302.246	107.558	117.466	136.588	135.824	193.407	126.967	131.957	114.410	179.919	200.593	119.662	117.179	47.459
85.000	311.724	302.151	283.482	283.004	226.042	292.291	287.660	304.657	240.247	218.618	298.761	301.840	108.012	117.418	136.254	135.681	193.336	126.967	131.838	114.458	179.895	200.426	119.567	117.299	49.128
86.000	311.581	301.960	283.076	282.551	225.612	292.554	287.970	304.944	240.414	218.880	299.572	302.222	107.821	117.251	136.278	135.633	193.455	127.039	131.766	114.362	179.608	200.641	119.734	117.251	35.457
87.000	312.058	302.389	283.816	283.410	225.899	292.363	288.065	304.920	240.462	218.904	298.808	301.840	107.892	117.322	136.302	135.633	193.359	126.920	131.742	114.267	179.489	200.498	119.853	117.155	28.779
88.000	311.939	302.389	283.291	282.718	225.636	292.100	287.946	304.992	240.629	218.809	299.740	302.103	107.845	117.466	136.254	135.633	193.240	126.848	131.503	114.291	179.322	200.283	119.662	117.203	41.232
89.000	311.509	301.936	283.744	283.267	226.066	292.363	288.161	304.753	240.820	218.976	299.381	301.769	108.012	117.275	136.039	135.729	193.216	126.896	131.575	114.338	179.274	200.402	119.590	117.084	51.249
90.000	312.512	302.103	283.983	283.291	225.756	293.031	288.686	305.087	241.464	218.976	298.641	301.673	108.322	117.466	136.135	135.514	193.168	126.753	131.551	114.410	179.274	200.307	119.495	117.060	41.683
91.000	312.106	302.557	283.959	282.956	226.114	292.697	288.113	305.159	241.273	218.761	299.620	302.270	107.845	117.490	136.087	135.657	193.145	126.562	131.265	114.100	179.059	200.354	119.447	117.155	28.554
92.000	311.843	302.533	283.529	282.407	225.827	292.697	288.424	304.872	241.799	218.761	299.310	302.342	107.487	117.275	136.015	135.705	193.288	126.753	131.169	114.314	178.988	200.307	119.495	117.012	34.870
93.000	311.318	302.461	284.079	283.458	225.803	292.315	288.018	304.514	241.035	218.498	300.026	302.604	107.773	117.394	135.968	135.562	193.240	126.538	130.906	114.123	178.749	200.259	119.543	117.299	49.218
94.000	312.106	302.628	284.031	283.482	226.496	293.055	288.805	305.016	241.536	218.976	299.167	301.960	108.298	117.394	135.824	135.657	193.240	126.585	131.050	114.195	178.630	200.283	119.495	117.132	47.323
95.000	312.440	302.222	283.386	282.980	225.875	292.649	288.901	305.063	241.441	219.453	299.262	302.246	107.988	117.251	135.801	135.490	193.097	126.490	131.074	114.291	178.582	200.235	119.495	117.179	32.479
96.000	311.628	302.748	284.365	283.171	225.994	292.482	288.328	304.729	241.846	219.214	299.620	302.461	107.749	117.299	135.753	135.562	193.168	126.585	130.859	114.147	178.582	200.259	119.328	116.988	30.088
97.000	311.748	302.628	283.577	283.315	226.018	293.198	288.662	304.634	241.178	219.405	299.358	302.342	108.107	117.442	135.753	135.466	193.192	126.394	131.002	114.171	178.439	200.259	119.423	116.964	44.616
98.000	311.676	302.246	283.911	283.219	225.899	292.673	288.758	305.135	241.799	218.904	299.214	302.222	107.678	117.394	135.705	135.562	193.168	126.323	130.668	114.123	178.391	200.092	119.376	116.964	50.888
99.000	311.772	302.557	283.888	283.291	226.185	292.936	288.829	304.753	242.276	218.856	299.429	302.198	107.916	117.275	135.848	135.562	193.240	126.323	130.787	114.243	178.367	200.139	119.185	117.036	38.705
100.000	312.225	302.557	284.437	283.649	226.209	293.079	288.877	305.063	242.157	219.191	299.167	301.888	108.107	117.322	135.729	135.586	193.240	126.371	130.739	114.219	178.415	200.163	119.232	117.012	28.193
101.000	311.485	302.246	284.126	283.673	226.066	293.150	288.782	304.729	241.751	219.214	299.238	302.437	107.845	117.275	135.753	135.514	193.192	126.371	130.644	113.980	178.224	200.259	119.304	116.917	38.254
102.000	311.915	302.724	284.437	283.577	225.899	293.318	288.877	304.992	241.990	218.976	299.238	301.960	108.083	117.179	135.514	135.514	193.121	126.299	130.381	114.052	177.961	200.116	119.399	117.036	50.888
103.000	311.963	302.795	283.983	283.768	226.424	293.055	288.901	305.135	242.133	219.310	299.572	302.270	107.701	117.179	135.586	135.538	193.049	126.275	130.525	114.147	177.937	200.092	119.161	116.869	43.623
104.000	312.536	302.771	284.198	283.028	226.305	293.127	288.853	305.207	242.109	219.023	299.167	301.960	107.821	117.418	135.705	135.586	193.121	126.012	130.357	114.195	178.104	200.116	119.399	116.893	29.321
105.000	312.679	302.413	283.983	283.386	226.162	293.532	289.450	305.445	242.205	219.453	299.620	302.270	107.845	117.275	135.323	135.562	192.882	126.180	130.310	114.028	177.985	199.972	119.328	117.060	33.246
106.000	312.345	302.676	283.744	283.267	226.066	293.055	289.450	305.087	242.252	219.167	299.572	302.318	107.678	117.132	135.442	135.490	192.906	126.108	130.286	114.147	177.913	200.116	119.161	116.893	47.955
107.000	311.843	302.652	284.532	283.076	226.114	293.031	288.973	304.944	242.754	219.214	299.238	302.366	107.558	117.203	135.633	135.562	193.025	126.156	130.334	114.052	178.033	199.996	119.089	116.917	48.857
108.000	311.509	303.130	284.389	283.338	226.090	292.959	288.949	304.872	242.515	219.095	299.405	302.389	107.845	117.346	135.466	135.705	193.240	126.108	130.357	114.004	177.913	200.163	119.065	117.012	34.464
109.000	311.414	302.700	284.270	283.243	226.233	293.413	288.996	304.872	242.897	219.119	299.119	302.175	107.511	117.179	135.466	135.586	193.121	126.012	130.238	114.028	177.889	200.116	119.161	116.821	29.185
110.000	312.536	302.509	284.628	283.911	226.591	293.604	289.522	304.872	242.634	219.453	299.620	302.342	108.107	117.179	135.299	135.395	193.097	126.012	130.166	113.956	177.722	199.949	119.137	116.917	42.676
111.000	311.700	302.652	284.270	283.028	225.994	293.103	289.259	305.135	242.706	219.405	299.835	302.031	107.558	117.251	135.395	135.371	193.049	126.060	130.190	113.932	177.770	199.949	119.185	116.941	51.294
112.000	312.369	302.461	284.341	283.744	226.281	293.867	289.665	305.135	242.706	219.095	299.310	302.771	107.892	117.132	135.228	135.419	192.858	125.869	130.166	114.004	177.603	200.044	119.352	116.964	40.871
113.000	311.581	302.580	284.556	282.933	225.947	293.891	289.641	304.848	242.634	219.095	299.596	302.413	107.940	117.132	135.204	135.538	193.025	126.060	130.166	113.980	177.531	200.068	119.256	116.773	28.463
114.000	311.772	302.437	284.365	283.100	226.209	293.055	289.140	305.207	242.777	219.358	299.883	302.748	107.606	117.155	135.371	135.466	192.930	126.036	130.023	113.861	177.651	199.972	118.994	116.797	35.502
115.000	312.201	302.294	284.055	283.147	226.281	293.532	289.737	305.016	242.777	219.334	299.811	302.437	107.797	117.203	135.275	135.275	193.145	125.917	130.095	113.956	177.436	199.925	119.089	116.797	49.399
116.000	311.796	302.533	284.866	283.482	225.947	293.580	289.402	305.063	243.016	219.262	299.429	302.628	107.725	117.203	135.228	135.490	193.025	125.893	130.143	113.861	177.460	199.877	119.041	116.821	47.052
117.000	311.676	302.294	284.604	283.506	225.780	293.222	289.713	304.825	242.730	219.381	299.787	302.485	107.725	117.227	135.251	135.586	192.954	125.845	130.047	113.932	177.436	199.925	119.137	116.797	32.073
118.000	312.106	302.676	284.723	283.434	226.520	293.461	289.617	305.374	243.016	219.119	299.596	302.342	107.654	117.275	135.132	135.466	193.001	125.726	129.832	114.052	177.460	199.877	119.065	116.750	30.088
119.000	312.010	302.294	284.723	283.553	226.615	293.461	289.378	305.111	242.897	219.286	299.501	302.318	107.749	117.108	135.108	135.228	192.906	125.821	129.808	113.885	177.221	199.853	118.922	116.797	44.706
120.000	312.297	302.652	284.437	283.004	226.353	293.556	289.975	305.350	242.754	219.835	299.620	302.557	107.892	117.036	135.180	135.514	192.977	125.774	129.999	113.909	177.149	199.996	119.137	116.893	50.617
