-----------------------------------------------------
BloodHound 307 VOC Analyser V2017.1
RoboScientific Ltd 
Espace North
Wisbech Road
Littleport
Cambridgeshire, UK
CB6 1RA 
-----------------------------------------------------
Date = 08/04/2022
Time = 11:20:45
Data is protected by RoboScientific Limited
-----------------------------------------------------
Name of the experiment = "47b_Day 24"
-----------------------------------------------------
Repeat No. = 2/4
-----------------------------------------------------
Experimental Time (in sec) and Flow Profile :
-----------------------------------------------------
Baseline = 2.00
Absorb = 4.00
Pause = 1.00
Desorb = 5.00
Flush = 20.00
Wait = 5.00
Higher Flow (V) = 4.00
Medium Flow (V) = 3.00
Low Flow (V) = 1.00
-----------------------------------------------------
Total Profile Time = 37 in sec
-----------------------------------------------------
Acquired data point per second = 4
--------------------------------------------------
Total data point stored  = 128
-----------------------------------------------------
Acquired sensor responses from 24 sensors
-----------------------------------------------------

Data Points	 Sen-1	 Sen-2	 Sen-3	 Sen-4	 Sen-5	 Sen-6	 Sen-7	 Sen-8	 Sen-9	 Sen-10	 Sen-11	 Sen-12	 Sen-13	 Sen-14	 Sen-15	 Sen-16	 Sen-17	 Sen-18	 Sen-19	 Sen-20	 Sen-21	 Sen-22	 Sen-23	 Sen-24	Humidity (%r.h.)
0.000	313.109	306.878	300.312	308.525	314.995	315.615	315.926	300.671	288.304	311.724	229.647	281.070	106.365	112.548	118.779	109.969	103.715	103.261	103.428	118.421	130.883	107.320	188.298	137.782	35.502
1.000	312.583	307.498	300.480	308.859	315.042	315.472	315.448	300.217	288.424	311.605	229.647	281.596	106.508	112.452	118.731	109.993	103.715	103.261	103.380	118.564	130.883	107.248	188.609	137.806	44.390
2.000	313.443	307.212	300.384	308.620	315.114	315.472	315.759	300.981	288.328	311.676	229.480	281.333	106.245	112.333	118.683	110.065	103.691	103.380	103.524	118.397	130.930	107.176	188.442	137.615	47.684
3.000	313.443	306.949	300.432	308.501	315.329	315.973	316.021	300.456	288.495	311.867	229.504	281.620	106.365	112.428	118.588	110.065	103.595	103.189	103.404	118.492	130.930	107.176	188.394	137.567	41.322
4.000	313.013	307.140	300.838	308.979	315.329	315.496	315.663	300.384	288.328	311.605	229.599	281.763	106.317	112.381	118.492	110.089	103.810	103.213	103.380	118.373	130.787	107.224	188.418	137.639	33.607
5.000	313.228	307.307	300.790	308.668	315.186	315.759	315.663	300.885	288.400	311.748	229.719	281.405	106.317	112.452	118.516	110.017	103.739	103.309	103.380	118.301	130.739	107.200	188.370	137.376	36.495
6.000	312.536	306.949	300.647	308.644	315.400	315.782	315.639	300.432	288.256	311.724	229.766	282.216	106.245	112.309	118.468	110.065	103.619	103.380	103.500	118.349	130.811	107.272	188.370	137.161	45.293
7.000	313.371	307.212	300.432	309.146	315.305	315.615	315.926	300.551	288.256	311.891	229.934	282.145	106.245	112.237	118.397	109.946	103.619	103.309	103.261	118.421	130.883	107.320	188.465	137.090	47.233
8.000	313.395	307.498	301.005	308.573	315.233	315.568	316.093	300.480	288.233	311.390	229.456	282.193	106.126	112.285	118.301	109.969	103.595	103.213	103.476	118.492	130.883	107.248	188.370	136.946	39.879
9.000	313.443	307.307	300.933	308.692	315.210	315.687	315.902	300.599	288.256	311.533	229.647	282.479	106.150	112.214	118.445	109.874	103.476	103.285	103.524	118.468	130.859	107.296	188.418	136.827	33.111
10.000	312.010	306.233	300.933	308.764	315.329	315.639	315.782	300.217	288.256	311.461	229.552	280.856	106.747	112.763	118.206	109.993	103.571	103.261	103.404	118.349	130.572	107.415	188.537	137.854	37.713
11.000	299.668	274.840	299.883	308.167	315.162	315.591	315.711	299.787	289.211	308.024	227.713	255.407	119.614	142.819	119.447	110.423	103.595	103.380	103.548	118.850	129.880	110.399	190.518	164.401	41.864
12.000	271.855	255.717	296.684	307.021	315.162	315.973	315.830	297.281	289.569	295.896	225.971	285.750	148.382	164.568	122.503	111.688	103.858	103.404	103.476	121.309	129.235	123.721	191.879	134.750	36.765
13.000	243.350	284.962	292.076	305.087	315.210	315.305	315.305	293.604	289.904	280.689	225.135	301.960	175.812	133.580	127.206	113.646	104.073	103.476	103.571	125.010	128.853	137.901	193.192	118.206	43.894
14.000	234.851	301.220	286.203	302.604	314.684	315.281	315.353	289.665	289.928	268.680	223.894	310.148	182.258	116.320	132.458	116.105	104.335	103.810	103.739	128.830	128.877	150.053	194.458	108.609	50.933
15.000	262.306	311.652	279.853	298.617	313.992	314.875	315.162	285.774	289.808	254.881	223.344	317.000	156.666	106.269	138.809	119.686	104.479	103.906	103.739	132.363	128.853	163.685	195.222	102.640	42.360
16.000	283.076	318.480	272.810	294.201	313.705	314.469	314.947	281.667	289.450	238.313	222.437	320.366	136.541	100.850	145.851	124.126	104.861	104.264	104.049	136.612	129.426	180.062	196.057	98.462	29.907
17.000	297.137	322.921	265.624	289.283	313.395	314.207	314.565	277.513	288.901	221.267	221.363	323.565	122.264	96.194	153.419	129.116	105.219	104.861	104.383	141.100	130.071	197.776	196.606	95.789	32.750
18.000	308.071	325.308	257.555	283.697	312.751	313.228	313.920	272.022	288.400	236.594	221.530	326.000	111.378	92.876	162.157	134.989	105.792	105.529	104.908	146.400	130.596	181.829	197.108	94.380	47.278
19.000	315.233	327.027	249.725	277.275	311.963	312.058	313.491	266.460	287.731	252.900	220.981	326.884	104.264	91.109	170.178	141.053	106.174	106.436	105.410	151.772	131.432	165.237	197.370	92.876	53.279
20.000	320.032	328.794	244.043	270.686	311.748	310.721	312.774	260.969	286.418	266.173	220.671	328.626	99.107	89.844	178.080	147.928	107.033	107.701	106.245	157.621	132.339	151.700	198.015	91.778	40.916
21.000	322.992	330.512	240.939	263.428	310.578	308.907	311.652	254.977	285.535	276.678	220.313	328.459	96.242	88.937	181.590	155.138	107.725	109.540	107.248	163.613	133.318	142.223	197.919	90.966	28.554
22.000	325.475	331.324	242.300	256.123	310.077	306.806	310.315	249.319	284.532	284.604	220.456	329.820	93.330	88.292	178.630	162.276	108.442	111.808	108.489	169.414	134.106	133.795	198.444	90.178	33.562
23.000	328.030	331.658	245.905	248.770	309.289	303.726	308.620	243.422	283.291	290.357	220.360	329.796	91.611	87.863	170.393	169.772	109.540	114.529	110.280	175.717	135.514	127.325	198.588	88.603	49.444
24.000	329.677	332.446	250.083	241.560	308.215	300.957	306.711	238.122	282.384	295.395	220.384	330.107	90.298	86.860	162.706	176.362	110.351	117.394	112.476	180.921	136.684	122.813	198.468	89.152	52.828
25.000	329.963	332.613	254.165	234.684	307.069	298.355	304.323	233.228	281.070	298.570	220.002	330.823	89.247	86.359	156.284	183.333	111.474	120.331	114.768	186.341	137.710	119.972	198.612	88.841	39.247
26.000	330.083	332.995	257.770	232.846	306.543	297.018	302.819	232.870	280.617	298.785	219.453	330.393	89.080	86.573	152.894	186.317	112.142	121.429	116.224	187.439	138.307	120.044	198.755	88.913	27.922
27.000	330.441	332.733	259.537	233.586	305.947	296.970	302.270	233.228	280.856	298.355	220.289	331.515	88.674	86.383	150.530	185.935	112.548	121.381	116.606	186.723	138.045	120.665	198.635	88.221	35.412
28.000	330.274	333.329	260.301	233.849	306.400	297.663	302.127	234.016	280.569	298.164	219.859	330.321	89.223	86.359	149.408	185.051	112.452	121.047	116.917	185.959	137.949	120.760	198.755	87.982	51.113
29.000	330.799	333.497	261.470	235.114	305.947	297.639	302.103	234.756	281.070	297.543	220.098	331.205	88.436	86.550	148.955	184.049	112.428	120.736	116.988	185.481	137.878	121.166	198.755	89.438	51.970
30.000	330.990	333.258	262.521	233.180	305.445	296.540	301.124	233.013	280.354	300.312	219.978	331.348	87.791	86.001	146.711	185.410	112.906	122.026	118.015	186.914	138.212	118.134	198.731	87.719	36.856
31.000	330.274	332.733	264.908	228.955	305.111	294.249	299.453	230.411	279.543	301.244	220.241	331.611	89.223	85.547	144.371	190.184	113.718	124.389	119.614	189.922	138.880	117.776	198.850	89.295	27.832
32.000	328.507	333.210	267.009	225.589	303.965	293.150	297.543	233.180	280.450	297.161	219.811	330.512	90.990	86.430	141.960	193.765	114.553	125.416	121.047	186.770	138.546	121.214	198.803	90.059	37.487
33.000	325.857	333.258	267.964	225.398	303.512	293.270	297.973	238.958	282.025	288.710	220.098	328.077	94.141	87.552	141.363	193.670	114.816	125.057	120.927	180.635	137.066	129.952	198.277	91.229	52.422
34.000	321.727	331.873	268.203	228.501	303.440	294.941	299.334	245.523	283.458	277.418	221.172	324.831	97.866	87.337	140.909	190.638	114.577	123.601	119.662	173.568	135.347	142.581	197.203	95.096	50.030
35.000	317.382	331.014	267.868	232.989	304.419	296.517	300.885	251.539	285.057	260.611	222.079	321.990	102.258	88.937	142.079	185.624	113.861	122.145	117.991	167.146	133.891	159.101	196.367	97.913	35.953
36.000	310.697	329.534	266.651	238.791	305.230	298.212	302.748	257.340	286.299	240.724	222.676	317.119	109.516	90.536	143.082	179.513	112.954	120.116	116.248	161.035	132.721	178.248	195.293	102.521	29.366
37.000	301.602	328.244	264.526	245.738	306.520	300.527	304.586	262.688	286.848	220.217	223.679	311.748	117.561	91.229	145.541	172.590	111.975	117.895	114.243	155.616	131.933	197.346	194.672	107.582	39.157
38.000	288.614	326.144	261.136	252.900	307.618	302.557	306.114	267.176	287.230	238.289	223.989	304.729	130.572	92.924	148.812	166.144	111.139	115.938	112.643	151.127	131.456	181.041	193.956	113.980	50.301
39.000	271.688	323.470	258.104	259.823	308.382	304.753	308.071	271.617	287.827	254.428	224.801	297.806	149.146	95.693	153.180	158.886	110.375	113.909	111.044	147.236	131.074	165.666	193.574	121.763	46.466
40.000	248.101	321.082	253.425	265.457	308.835	306.806	309.289	274.887	287.922	265.720	224.872	289.617	172.160	98.701	157.836	152.703	109.564	111.855	109.707	143.727	130.763	153.252	192.906	129.498	35.998
41.000	224.371	317.525	249.056	271.378	309.719	308.644	310.268	277.848	288.424	274.744	225.469	281.548	195.747	102.067	163.565	146.806	108.776	109.969	108.585	140.527	130.572	143.703	192.691	137.949	33.111
42.000	233.491	313.037	243.995	276.749	310.387	310.077	311.461	280.665	288.185	281.620	225.923	273.622	185.219	106.054	169.343	141.697	108.155	108.227	107.582	137.400	130.525	137.066	192.237	145.541	40.239
43.000	246.000	308.668	239.244	280.879	310.888	311.509	312.297	283.506	288.376	286.418	225.851	265.553	173.950	110.757	175.980	137.758	107.558	107.152	106.818	135.228	130.525	132.458	191.760	153.682	46.060
44.000	257.102	303.488	235.233	284.723	311.772	312.774	312.918	285.965	288.614	289.999	226.257	257.651	162.945	116.248	182.402	134.034	107.248	106.126	106.078	132.673	130.429	128.710	191.593	161.250	42.902
45.000	265.099	296.875	233.706	287.827	311.987	313.300	313.491	287.994	288.280	292.936	226.854	250.608	154.207	123.124	187.296	130.501	106.675	105.601	105.768	130.501	130.381	125.845	191.450	168.483	38.570
46.000	272.619	288.734	233.873	290.453	312.345	313.968	313.968	290.047	288.328	295.013	226.878	243.756	147.140	130.859	187.678	128.042	106.150	104.980	105.195	128.710	130.381	123.649	191.306	174.929	37.668
47.000	278.683	279.304	236.523	292.864	312.798	314.064	314.135	291.503	288.424	296.731	227.021	237.549	140.504	139.644	184.837	125.487	105.935	104.598	105.004	127.254	130.429	121.978	191.044	180.850	40.826
48.000	284.389	269.468	240.533	294.965	313.252	314.732	314.350	292.745	288.400	298.450	227.522	231.461	135.466	149.408	180.468	123.768	105.577	104.359	104.717	126.084	130.572	120.569	190.948	186.770	43.082
49.000	288.447	260.253	244.425	296.421	313.514	314.732	314.613	294.320	288.543	299.596	227.737	227.498	131.265	159.029	175.048	122.121	105.314	104.168	104.598	124.628	130.238	119.185	190.375	191.808	41.097
50.000	291.766	248.913	249.343	298.045	313.562	314.899	314.589	294.941	288.424	300.814	227.451	222.294	127.206	170.202	169.462	120.187	105.028	103.953	104.407	123.888	130.787	118.015	190.566	196.702	39.653
51.000	294.678	237.191	254.189	299.429	314.111	315.305	315.114	295.920	288.591	302.055	227.570	219.095	124.867	181.876	164.043	119.065	104.956	103.810	104.192	122.861	130.596	117.060	190.495	200.569	39.698
52.000	296.445	225.756	259.011	300.742	313.992	315.138	314.923	296.373	288.567	302.771	228.071	219.620	122.622	192.715	159.626	117.776	104.693	103.667	103.977	122.336	130.453	116.296	190.160	200.426	40.330
53.000	298.665	223.392	262.998	301.721	314.159	315.186	315.424	297.018	288.424	303.488	227.952	221.888	120.927	197.060	155.926	117.012	104.670	103.810	104.097	121.978	130.644	115.365	190.089	198.206	39.743
54.000	300.360	233.228	266.484	302.915	314.231	315.448	315.400	297.400	288.233	303.941	228.167	224.252	119.519	186.794	152.369	116.105	104.359	103.500	103.953	121.667	130.572	115.078	190.041	195.484	39.833
55.000	301.291	242.276	269.110	303.058	314.446	315.353	315.329	297.686	288.567	304.275	228.334	226.615	118.301	177.149	149.480	115.699	104.407	103.548	103.834	121.118	130.620	114.553	189.946	192.930	41.367
56.000	302.533	250.703	271.712	303.941	314.637	315.687	315.544	297.997	288.376	304.705	228.477	229.002	117.179	168.340	147.045	114.959	104.240	103.476	103.882	120.927	130.501	113.813	189.874	190.304	41.638
57.000	303.512	258.653	274.481	304.252	314.947	315.735	315.400	298.164	288.280	305.421	228.406	231.485	116.177	161.154	144.729	114.696	104.311	103.548	103.739	120.617	130.572	113.455	189.874	188.203	39.788
58.000	304.180	264.693	276.463	304.490	314.517	315.544	315.591	298.235	288.400	305.899	228.668	233.801	115.436	154.899	142.676	114.171	104.144	103.476	103.643	120.545	130.739	113.216	189.707	185.911	39.157
59.000	304.657	270.113	278.301	304.896	314.684	315.400	315.591	298.474	288.495	305.875	228.573	235.639	114.959	149.504	140.742	113.789	104.192	103.595	103.643	120.331	130.644	112.954	189.635	184.025	39.879
60.000	305.207	274.481	279.757	305.159	314.851	315.639	315.544	298.570	288.591	306.376	228.573	237.358	114.171	144.777	139.191	113.503	104.288	103.500	103.762	120.402	130.692	112.643	189.611	181.924	42.992
61.000	305.421	278.421	281.261	305.445	315.019	315.472	315.377	298.952	288.447	306.400	228.692	239.268	113.861	140.742	137.687	113.312	103.977	103.428	103.739	120.163	130.739	112.357	189.683	180.253	42.450
62.000	305.875	281.954	282.503	305.947	314.732	315.448	315.472	298.904	288.400	306.997	228.812	240.844	113.216	137.639	136.541	113.097	104.168	103.500	103.667	120.116	130.787	112.070	189.659	178.510	39.292
63.000	306.257	284.890	283.792	305.899	314.637	315.353	315.782	298.689	288.137	307.164	228.931	242.467	112.882	134.822	135.371	112.954	104.073	103.428	103.548	119.781	130.739	112.046	189.468	176.887	38.164
64.000	307.140	287.206	284.628	306.018	315.066	315.782	315.544	298.880	288.543	307.284	228.907	244.162	112.691	132.411	134.392	112.691	103.929	103.428	103.643	119.805	130.835	111.688	189.444	175.216	40.239
65.000	307.403	288.734	285.821	305.923	314.851	315.711	315.759	299.167	288.209	307.451	229.026	245.308	111.999	130.262	133.365	112.596	103.882	103.452	103.595	119.614	130.668	111.450	189.373	173.735	44.210
66.000	307.880	290.691	286.561	306.090	314.995	315.759	315.591	298.856	288.447	307.856	228.812	246.860	111.975	128.710	132.243	112.381	104.025	103.476	103.691	119.662	130.692	111.306	189.420	172.542	42.586
67.000	307.570	292.148	287.731	306.329	314.923	315.854	315.782	299.167	288.304	307.618	228.716	248.125	111.545	127.469	131.790	112.285	104.168	103.428	103.524	119.686	130.739	111.092	189.325	171.444	38.751
68.000	308.071	293.604	288.161	306.591	314.995	315.615	315.520	299.167	288.113	307.713	229.146	248.961	111.426	126.227	131.026	112.023	103.882	103.333	103.476	119.710	130.787	111.068	189.253	170.274	37.442
69.000	308.525	294.320	289.068	306.830	315.042	315.591	315.711	299.167	288.137	308.143	228.740	250.369	111.115	125.129	130.143	111.951	104.049	103.476	103.571	119.543	130.787	110.757	189.349	169.056	40.871
70.000	308.716	295.347	289.569	306.806	314.828	315.639	315.568	299.405	288.209	308.071	229.050	251.324	110.853	124.270	129.570	111.999	103.953	103.476	103.619	119.471	130.787	110.638	189.277	167.815	44.075
71.000	308.668	296.636	290.142	306.782	314.660	315.353	315.711	299.381	288.662	308.286	228.859	252.637	110.590	123.267	129.068	111.903	103.882	103.380	103.667	119.447	130.787	110.495	189.349	166.788	42.766
72.000	309.026	296.708	290.691	307.140	314.971	315.735	315.687	299.310	288.161	308.310	229.241	253.688	110.542	122.766	128.615	111.760	103.929	103.404	103.524	119.376	130.811	110.519	189.182	165.857	38.119
73.000	309.480	297.543	290.835	306.878	315.042	315.878	315.854	299.596	287.994	308.501	229.026	254.595	110.280	121.930	128.161	111.784	103.882	103.333	103.404	119.399	130.739	110.184	189.229	164.711	37.036
74.000	309.599	298.212	291.909	306.997	314.828	315.639	315.735	299.954	288.161	308.764	229.361	255.120	110.041	121.453	127.755	111.641	103.834	103.213	103.500	119.376	130.811	110.160	189.110	163.900	41.413
75.000	309.647	298.641	291.742	306.949	314.732	315.782	315.806	299.763	288.567	308.811	229.241	256.218	109.874	120.856	127.278	111.497	103.786	103.380	103.643	119.256	130.763	110.113	189.205	163.064	44.706
76.000	309.766	299.238	292.243	307.331	315.162	315.973	315.568	299.525	288.018	308.764	229.432	256.982	109.683	120.283	126.920	111.450	103.715	103.380	103.524	119.161	130.739	110.089	189.134	162.157	42.270
77.000	309.575	299.620	292.864	307.164	314.947	315.687	315.615	299.334	288.304	309.170	229.146	258.056	109.946	119.949	126.633	111.569	103.858	103.404	103.643	119.185	130.811	109.922	189.038	161.393	37.171
78.000	309.575	300.145	293.127	307.379	315.210	315.687	315.568	299.572	288.042	308.979	229.337	258.797	109.540	119.399	126.251	111.306	103.810	103.309	103.452	119.161	130.787	109.731	189.182	160.629	36.856
79.000	310.053	300.289	293.031	307.331	315.400	315.759	315.735	299.668	288.233	309.289	229.002	259.131	109.397	119.185	125.798	111.330	103.715	103.357	103.476	119.304	130.883	109.588	189.134	159.817	42.135
80.000	309.981	300.480	293.532	307.355	315.066	315.926	315.782	299.620	288.256	309.193	229.265	259.823	109.516	118.683	125.559	111.306	103.858	103.309	103.476	119.137	130.811	109.611	188.919	159.197	45.293
81.000	310.172	301.435	294.249	307.546	314.804	315.377	315.615	299.477	288.233	309.337	229.552	260.468	109.206	118.421	125.225	111.092	103.882	103.357	103.595	118.922	130.668	109.420	189.038	158.480	42.360
82.000	310.363	301.196	294.272	307.522	315.090	315.520	315.591	299.931	288.280	309.552	229.313	261.327	109.229	118.397	125.010	111.163	103.810	103.428	103.500	119.113	130.811	109.516	188.895	157.907	36.585
83.000	310.626	301.482	294.296	307.522	315.400	315.878	315.663	299.907	288.185	309.241	229.599	262.473	108.919	117.728	124.628	111.020	103.762	103.404	103.524	119.065	130.763	109.444	188.919	157.024	36.856
84.000	310.697	302.007	294.559	307.761	315.424	316.093	315.759	300.074	288.280	309.361	229.504	263.333	108.800	117.394	124.485	110.996	103.786	103.285	103.500	119.209	130.883	109.349	188.895	155.974	42.811
85.000	310.530	301.960	294.631	307.713	315.066	315.687	315.663	300.074	288.233	309.742	229.337	263.762	108.633	117.155	124.294	111.044	103.715	103.189	103.500	119.041	130.930	109.349	188.943	155.687	45.699
86.000	310.483	302.580	295.538	307.952	315.090	315.615	315.591	299.716	288.113	309.480	229.050	264.287	108.776	116.917	123.816	111.020	103.715	103.404	103.500	118.922	130.835	109.158	188.991	155.066	41.458
87.000	310.745	302.413	295.395	308.000	315.114	315.926	315.782	299.668	288.424	309.910	229.480	264.598	108.680	116.750	123.721	111.068	103.810	103.261	103.524	119.041	130.787	109.015	188.895	154.971	35.773
88.000	310.912	302.676	295.848	307.666	314.947	315.472	315.854	299.811	288.447	309.695	229.456	264.741	108.585	116.773	123.553	110.924	103.739	103.380	103.548	119.065	130.906	109.086	188.919	154.589	37.307
89.000	310.697	302.819	295.562	307.928	315.042	315.687	315.639	299.811	287.946	309.742	229.289	265.171	108.489	116.750	123.625	110.901	103.739	103.357	103.548	118.970	130.859	108.991	188.919	154.016	43.759
90.000	311.175	303.058	295.729	307.594	315.090	315.735	315.806	300.074	288.233	309.957	229.241	265.505	108.609	116.559	123.148	110.996	103.715	103.166	103.524	118.970	130.930	108.967	188.847	153.825	45.699
91.000	311.533	303.082	295.896	307.666	314.995	315.878	315.973	300.074	288.256	309.862	229.170	265.815	108.418	116.248	123.291	110.853	103.786	103.309	103.452	118.922	130.787	108.824	188.967	153.300	40.555
92.000	311.318	303.344	296.564	307.713	314.851	315.568	315.878	300.074	288.209	309.933	229.552	266.293	108.633	116.248	123.004	110.757	103.762	103.428	103.619	118.922	130.811	108.871	188.847	153.109	35.231
93.000	311.270	303.153	296.469	308.024	315.281	315.663	315.854	299.954	288.089	309.910	229.599	267.272	108.274	115.986	122.909	110.781	103.762	103.261	103.524	118.874	130.906	108.800	188.800	152.058	37.758
94.000	311.247	303.535	296.397	308.024	315.329	315.854	315.806	299.835	287.994	309.766	229.408	267.439	108.155	115.890	122.670	110.710	103.691	103.333	103.404	118.827	130.787	108.609	188.895	151.915	44.390
95.000	311.414	303.607	296.803	308.095	315.520	315.806	315.926	299.763	288.209	310.148	229.504	267.821	108.179	115.866	122.479	110.757	103.595	103.357	103.500	118.970	130.811	108.800	188.871	151.581	45.564
96.000	311.414	303.607	296.684	307.809	315.377	315.830	315.782	299.907	288.089	310.148	229.313	268.036	108.155	115.675	122.408	110.662	103.739	103.404	103.404	118.898	130.787	108.680	188.823	151.438	39.788
97.000	311.772	303.798	296.827	308.167	315.186	315.400	315.759	300.241	288.614	310.196	229.074	267.988	108.203	115.675	122.312	110.829	103.762	103.237	103.428	118.827	130.859	108.776	188.943	151.032	34.825
98.000	311.247	303.559	296.803	307.833	314.923	315.782	315.950	300.098	288.185	310.411	229.074	268.513	108.131	115.532	122.312	110.710	103.643	103.261	103.380	118.922	130.835	108.656	188.800	150.674	38.299
99.000	311.318	303.941	297.090	307.904	315.186	315.639	315.806	300.050	288.209	310.363	229.480	268.823	107.988	115.580	122.097	110.686	103.786	103.309	103.476	118.850	130.716	108.656	188.895	150.554	45.022
100.000	311.438	304.037	297.161	308.191	314.995	315.591	315.759	300.074	288.161	310.172	229.241	269.492	108.060	115.317	121.930	110.638	103.739	103.189	103.452	118.850	130.859	108.656	188.847	150.005	45.157
101.000	310.960	304.180	297.448	307.785	314.923	315.472	315.830	299.859	288.089	310.315	229.504	269.850	107.797	115.198	121.715	110.519	103.762	103.380	103.404	118.683	130.835	108.585	188.728	149.647	39.021
102.000	311.963	303.846	297.328	307.880	315.162	315.782	315.902	300.098	288.376	310.387	229.480	269.945	107.869	115.174	121.858	110.566	103.595	103.404	103.500	118.827	130.739	108.418	188.752	149.289	34.645
103.000	311.342	304.514	297.376	308.453	315.186	315.639	315.663	299.859	288.519	310.745	229.552	270.590	107.869	115.007	121.763	110.519	103.595	103.380	103.571	118.946	130.835	108.394	188.704	148.907	38.705
104.000	311.700	304.419	297.495	308.047	315.090	315.544	315.854	300.241	288.280	310.435	229.384	270.853	107.797	114.935	121.453	110.447	103.643	103.357	103.571	118.827	130.739	108.346	188.823	148.382	45.699
105.000	311.939	304.657	297.734	308.238	315.090	315.496	315.591	300.408	288.591	310.435	229.647	271.139	107.701	114.816	121.524	110.614	103.667	103.237	103.500	118.659	130.787	108.346	188.776	148.119	45.067
106.000	311.843	304.729	297.495	307.880	314.995	315.568	315.591	300.169	288.543	310.936	229.504	271.235	107.749	114.673	121.405	110.399	103.643	103.452	103.595	118.827	130.787	108.442	188.823	147.857	38.299
107.000	311.557	304.705	297.758	308.167	315.233	315.687	315.878	299.954	287.803	310.339	229.265	271.808	107.749	114.864	121.357	110.662	103.667	103.333	103.452	118.827	130.739	108.346	188.680	147.594	34.554
108.000	311.724	305.135	297.854	308.310	315.019	315.544	315.639	300.026	288.089	310.697	229.456	272.022	107.678	114.601	121.023	110.471	103.691	103.333	103.524	118.803	130.835	108.251	188.776	147.164	39.563
109.000	311.724	305.159	297.997	308.406	315.210	315.759	315.711	300.193	288.376	310.483	229.384	271.975	107.534	114.529	121.023	110.375	103.739	103.404	103.571	118.850	130.930	108.203	188.656	146.902	46.285
110.000	311.939	304.872	298.498	308.095	314.851	315.878	315.735	299.954	288.328	310.530	229.623	272.786	107.678	114.458	120.951	110.614	103.810	103.261	103.404	118.731	130.859	108.155	188.704	146.782	44.481
111.000	311.915	305.159	298.355	308.406	315.114	315.615	315.854	300.002	288.280	310.721	229.552	272.548	107.511	114.434	120.951	110.471	103.739	103.452	103.571	118.803	130.787	108.251	188.680	146.615	37.397
112.000	311.796	305.374	298.617	308.238	315.186	315.496	315.639	300.002	288.233	310.888	229.313	273.097	107.654	114.267	120.713	110.208	103.667	103.500	103.643	118.683	130.859	108.203	188.871	146.281	34.600
113.000	311.915	305.278	298.140	308.024	315.162	315.854	315.830	300.002	288.113	310.912	229.647	273.383	107.439	114.195	120.760	110.280	103.548	103.309	103.595	118.755	130.859	107.988	188.704	146.066	40.781
114.000	312.130	305.135	298.212	308.167	315.400	315.711	315.711	300.002	288.304	310.745	229.599	273.383	107.320	114.147	120.784	110.423	103.739	103.428	103.452	118.755	130.883	108.203	188.752	145.708	46.737
115.000	312.392	305.493	298.785	308.453	315.281	316.141	315.950	299.978	288.161	310.626	229.241	273.622	107.439	114.147	120.713	110.351	103.667	103.380	103.667	118.779	130.859	108.060	188.728	145.493	43.894
116.000	312.178	305.254	298.426	308.000	315.281	315.878	315.902	300.312	288.328	310.697	229.384	273.479	107.272	114.219	120.784	110.399	103.739	103.452	103.619	118.755	130.930	107.940	188.752	145.398	36.585
117.000	311.939	305.326	298.450	308.310	315.233	315.568	315.830	300.098	288.376	310.936	229.504	274.004	107.439	113.932	120.545	110.471	103.834	103.476	103.476	118.731	130.811	107.940	188.585	145.183	34.735
118.000	311.939	305.780	298.594	308.453	315.138	315.591	315.544	300.336	288.256	311.056	229.647	274.553	107.296	114.004	120.593	110.256	103.619	103.380	103.595	118.731	130.859	107.821	188.776	144.849	41.232
119.000	312.249	305.517	298.594	307.880	315.138	315.687	315.878	300.098	288.065	311.199	229.575	274.338	107.367	114.004	120.354	110.495	103.739	103.333	103.452	118.612	130.716	108.083	188.680	144.872	47.143
120.000	312.655	304.992	298.928	308.286	315.472	315.687	315.997	300.432	288.137	310.936	229.575	274.458	107.272	114.028	120.331	110.375	103.691	103.333	103.476	118.683	130.787	107.964	188.752	144.586	43.488
121.000	312.512	305.230	298.641	308.334	315.568	315.973	316.045	299.835	287.994	310.912	229.552	274.720	107.367	113.956	120.402	110.447	103.667	103.380	103.452	118.659	130.739	107.964	188.680	144.443	36.089
122.000	312.082	305.732	298.880	308.692	315.400	315.520	315.448	300.241	288.256	311.294	229.599	274.744	107.176	113.932	120.378	110.232	103.404	103.261	103.643	118.779	130.835	107.916	188.704	144.276	35.006
123.000	312.225	305.517	299.238	308.859	315.400	315.735	315.782	300.312	288.137	310.841	229.504	275.126	107.176	113.885	120.378	110.280	103.691	103.404	103.500	118.516	130.716	107.869	188.728	144.061	42.405
124.000	312.106	305.589	298.761	308.573	315.066	315.496	315.759	300.169	287.898	310.769	229.504	275.078	107.009	114.028	120.187	110.280	103.834	103.285	103.452	118.659	130.811	107.892	188.609	143.989	47.278
125.000	312.416	306.090	299.358	308.668	315.210	315.759	315.544	300.360	288.304	311.127	229.719	275.198	107.200	113.765	120.092	110.399	103.786	103.428	103.524	118.636	130.692	107.869	188.728	143.679	42.676
126.000	312.560	305.660	299.047	308.597	315.138	315.735	315.806	300.289	288.161	311.079	229.432	275.603	107.320	113.932	120.211	110.519	103.691	103.237	103.333	118.516	130.859	108.060	188.680	143.679	35.006
127.000	312.416	305.970	299.023	308.525	315.186	315.496	315.639	300.575	288.400	311.199	229.575	275.699	107.081	113.622	120.092	110.280	103.667	103.309	103.428	118.659	130.906	107.916	188.632	143.559	35.502
128.000	312.607	305.923	299.310	308.167	314.947	315.544	315.639	300.289	288.280	311.151	229.910	275.866	107.105	113.718	120.044	110.280	103.667	103.309	103.380	118.516	130.787	107.725	188.656	143.201	43.037
