-----------------------------------------------------
BloodHound 307 VOC Analyser V2017.1
RoboScientific Ltd 
Espace North
Wisbech Road
Littleport
Cambridgeshire, UK
CB6 1RA 
-----------------------------------------------------
Date = 24/03/2022
Time = 12:28:16
Data is protected by RoboScientific Limited
-----------------------------------------------------
Name of the experiment = "50a_Day 35"
-----------------------------------------------------
Repeat No. = 2/4
-----------------------------------------------------
Experimental Time (in sec) and Flow Profile :
-----------------------------------------------------
Baseline = 2.00
Absorb = 4.00
Pause = 1.00
Desorb = 5.00
Flush = 20.00
Wait = 5.00
Higher Flow (V) = 4.00
Medium Flow (V) = 3.00
Low Flow (V) = 1.00
-----------------------------------------------------
Total Profile Time = 37 in sec
-----------------------------------------------------
Acquired data point per second = 4
--------------------------------------------------
Total data point stored  = 128
-----------------------------------------------------
Acquired sensor responses from 24 sensors
-----------------------------------------------------

Data Points	 Sen-1	 Sen-2	 Sen-3	 Sen-4	 Sen-5	 Sen-6	 Sen-7	 Sen-8	 Sen-9	 Sen-10	 Sen-11	 Sen-12	 Sen-13	 Sen-14	 Sen-15	 Sen-16	 Sen-17	 Sen-18	 Sen-19	 Sen-20	 Sen-21	 Sen-22	 Sen-23	 Sen-24	Humidity (%r.h.)
0.000	305.660	306.305	273.837	293.509	312.392	314.326	315.090	277.800	285.129	301.220	223.583	225.278	114.195	113.336	145.326	125.583	106.603	104.908	104.049	140.050	134.153	117.561	195.054	194.505	41.503
1.000	305.398	306.400	274.219	293.103	312.154	314.040	315.377	277.967	285.296	301.602	223.201	225.469	114.219	113.360	145.087	125.559	106.651	104.956	104.240	139.978	134.058	117.585	194.887	194.386	40.285
2.000	305.851	306.138	274.649	293.365	312.297	314.374	315.615	277.919	285.105	301.554	223.416	225.445	114.100	113.240	145.231	125.559	106.532	104.932	104.097	139.955	134.106	117.537	194.863	194.386	39.292
3.000	305.541	306.520	274.505	293.341	312.225	314.040	315.233	277.728	285.272	301.506	223.726	225.636	113.980	113.264	144.920	125.463	106.699	104.765	104.001	139.978	134.201	117.418	194.863	194.219	39.112
4.000	305.517	306.352	274.505	293.628	312.536	314.255	315.305	278.325	285.105	301.530	223.440	225.493	114.028	113.288	144.849	125.487	106.532	104.884	104.049	140.074	134.225	117.418	194.887	194.123	40.510
5.000	305.780	306.520	274.505	293.341	312.464	314.350	315.472	278.086	285.129	301.697	223.559	225.612	113.837	113.121	144.753	125.511	106.603	104.717	104.097	139.955	134.082	117.490	194.935	193.980	41.593
6.000	305.708	306.209	274.553	293.318	312.392	314.255	315.305	278.110	285.081	301.626	223.559	225.803	113.956	113.216	144.729	125.535	106.532	104.861	104.049	139.955	134.034	117.346	194.911	193.885	41.232
7.000	305.612	306.567	274.720	293.437	312.679	314.255	315.233	278.206	285.153	301.458	223.559	225.684	113.813	113.169	144.658	125.487	106.627	104.837	104.120	139.931	134.082	117.370	195.054	193.861	39.743
8.000	305.899	306.376	274.696	293.103	312.345	314.517	315.568	278.230	284.986	301.626	223.655	225.780	114.052	113.264	144.514	125.511	106.675	104.908	104.097	140.002	134.106	117.346	194.840	193.789	39.292
9.000	305.135	306.376	274.768	293.556	312.464	314.183	315.210	277.752	285.177	301.721	223.631	225.732	113.861	113.264	144.443	125.416	106.556	104.765	104.025	139.907	134.034	117.227	194.887	193.909	39.743
10.000	303.822	305.183	274.553	293.198	312.512	313.944	314.995	277.752	284.890	300.766	223.106	251.300	115.078	114.219	144.705	125.583	106.699	104.956	104.049	139.907	133.938	117.776	195.245	165.618	41.322
11.000	277.537	288.710	272.333	292.076	311.891	313.682	314.804	277.633	286.156	289.951	221.482	288.042	143.154	131.121	146.830	126.633	107.176	105.290	104.144	140.289	133.174	129.975	196.917	130.883	36.269
12.000	231.820	245.547	265.744	289.020	310.960	312.822	314.899	275.866	286.538	258.629	219.907	303.774	187.869	174.595	153.109	129.211	107.654	105.887	104.383	142.008	132.721	160.653	198.421	115.389	38.570
13.000	245.045	252.876	256.982	283.840	310.124	312.369	314.565	272.858	286.275	234.326	219.095	311.079	173.568	164.783	162.754	134.655	108.776	106.914	104.670	144.992	132.482	184.789	199.137	107.081	48.902
14.000	267.821	278.230	246.454	275.914	308.740	311.127	314.064	269.301	286.060	221.458	217.758	316.355	150.530	139.620	172.566	142.628	109.969	107.654	105.171	148.358	132.864	197.155	200.330	102.115	50.301
15.000	286.251	294.559	238.170	265.744	307.260	309.886	313.753	265.505	285.917	235.687	217.519	319.387	133.127	123.458	182.593	152.584	111.402	108.895	105.505	152.225	133.461	182.879	201.071	98.892	39.608
16.000	300.074	305.636	233.897	256.338	305.398	308.477	312.989	260.730	285.057	248.292	216.875	322.395	120.569	113.192	188.561	161.751	113.240	110.280	106.197	156.738	134.106	170.632	201.715	96.958	29.230
17.000	309.265	312.631	234.541	248.364	303.512	306.854	312.369	256.314	283.888	260.110	216.708	324.329	109.969	106.126	185.171	170.298	115.436	111.760	106.747	161.560	134.869	158.624	202.025	95.693	32.975
18.000	316.212	317.668	238.289	242.014	301.267	304.586	311.438	251.014	283.267	270.709	216.326	325.571	103.500	101.232	178.701	177.579	117.561	113.956	107.463	167.218	135.992	147.857	202.527	94.165	46.060
19.000	320.605	321.393	243.112	235.019	298.474	302.079	310.315	245.093	281.930	279.328	216.254	326.120	98.462	97.770	172.112	183.929	120.044	116.487	108.609	173.115	136.851	137.997	202.694	92.757	53.459
20.000	324.425	323.637	247.170	228.621	295.896	299.238	309.289	239.125	280.879	287.588	216.278	327.003	94.858	94.786	165.905	190.518	122.670	119.113	109.850	178.797	137.734	130.859	202.575	92.852	46.285
21.000	326.908	325.714	251.563	221.602	293.007	296.182	308.143	232.512	279.710	293.795	215.848	327.457	92.255	93.186	160.892	197.084	125.320	122.097	111.115	184.980	138.689	124.676	203.028	91.539	32.975
22.000	328.961	327.409	256.075	217.281	290.333	293.150	306.543	227.284	278.946	298.140	215.371	328.961	90.513	91.850	156.570	201.930	128.376	125.798	112.763	191.091	139.787	120.044	203.291	91.850	28.463
23.000	330.202	328.292	258.749	220.599	287.254	288.996	304.753	221.578	277.633	302.294	215.705	329.462	89.677	90.727	152.416	198.134	132.005	129.617	114.482	197.108	141.077	116.009	203.195	91.229	37.893
24.000	331.205	329.319	262.545	226.758	283.506	284.890	302.509	218.355	276.654	304.825	215.848	329.199	87.934	89.964	148.764	191.855	135.538	133.700	116.678	200.641	142.509	112.930	203.816	90.918	51.023
25.000	331.993	330.417	264.383	231.318	279.590	280.474	300.121	219.907	275.365	307.212	215.395	329.223	86.979	88.794	146.615	187.940	139.549	137.854	118.779	198.731	143.559	111.521	203.458	90.918	52.106
26.000	332.518	330.393	265.386	230.865	277.967	279.208	299.119	219.620	274.840	307.260	215.777	329.414	87.481	89.152	145.684	187.749	140.981	139.668	119.829	198.874	143.941	111.187	203.482	90.608	40.194
27.000	332.661	330.417	266.102	230.196	278.540	279.208	298.641	219.119	274.911	306.734	215.753	329.271	87.337	89.176	145.589	189.014	140.527	139.405	120.545	199.208	143.918	111.688	203.339	91.229	28.960
28.000	331.706	330.584	266.245	229.026	278.588	279.089	298.450	219.453	275.317	306.496	215.777	330.059	86.979	88.674	145.135	189.778	140.313	139.214	120.736	199.447	143.727	112.118	203.482	91.468	31.802
29.000	332.160	331.491	265.935	227.833	279.065	279.638	298.379	219.214	275.484	306.472	215.753	329.916	87.218	88.865	144.992	191.211	139.907	139.238	120.856	199.662	143.464	112.142	203.267	90.369	46.015
30.000	333.043	330.942	267.272	231.175	277.776	277.871	297.567	220.814	275.030	308.716	215.657	330.011	86.955	87.528	144.299	187.487	141.244	140.862	121.644	197.442	143.918	110.399	203.410	90.775	54.001
31.000	332.470	330.990	268.776	236.021	274.195	274.649	295.538	222.270	273.980	308.071	215.657	329.725	87.123	88.149	143.082	182.807	144.586	143.989	123.506	196.200	144.872	110.328	203.530	90.751	45.699
32.000	330.894	331.443	269.874	237.764	271.712	272.715	294.225	221.339	274.386	305.541	215.633	328.698	88.364	87.982	141.554	180.969	147.427	145.875	124.986	197.131	144.132	113.073	203.124	91.921	32.479
33.000	329.725	330.298	270.566	237.621	271.426	273.073	294.917	220.480	276.344	299.644	215.991	327.457	90.346	89.247	141.077	181.232	147.355	145.445	124.890	198.468	142.485	118.325	202.933	93.019	28.644
34.000	326.645	329.557	270.518	235.592	273.503	274.577	295.299	225.732	278.206	292.291	216.755	325.905	93.425	89.605	141.100	183.380	145.517	143.727	123.912	192.357	140.814	126.418	202.384	94.213	39.292
35.000	324.329	328.221	270.447	231.247	275.890	277.060	296.564	232.249	279.734	282.097	217.114	324.496	95.049	91.396	141.459	186.937	143.058	141.721	122.790	185.839	139.429	136.588	201.500	96.004	51.474
36.000	320.724	327.552	269.396	226.520	278.659	279.399	298.164	238.337	280.951	271.139	217.639	321.846	98.677	92.995	142.437	192.214	140.122	139.143	121.333	179.274	138.069	148.286	200.689	98.510	50.978
37.000	317.263	324.735	268.370	221.244	281.620	282.264	299.477	243.398	282.097	257.842	218.283	319.220	102.330	94.094	143.774	197.872	137.209	136.588	119.925	173.449	136.851	161.775	200.092	100.659	39.157
38.000	312.178	322.945	266.866	217.185	284.651	284.962	300.671	247.958	282.622	243.732	219.023	317.310	107.511	96.887	145.517	201.835	134.320	133.915	118.540	168.507	136.063	175.884	199.710	103.452	29.366
39.000	306.305	320.390	265.147	222.342	287.230	287.134	301.817	251.587	283.171	230.077	219.549	313.371	113.216	98.988	147.355	196.057	131.575	131.551	117.036	164.831	135.466	188.895	198.946	105.004	33.697
40.000	298.403	317.167	263.022	229.671	289.474	289.737	303.368	254.857	283.506	217.567	219.668	311.366	121.047	101.924	150.053	189.277	129.044	129.020	115.627	161.751	134.965	201.094	198.755	108.203	45.744
41.000	288.495	313.849	260.348	236.642	291.408	291.694	304.586	257.507	284.341	226.114	220.050	308.143	130.357	105.529	152.894	182.139	126.872	126.729	114.577	159.101	134.750	192.977	198.444	111.115	51.745
42.000	276.749	310.148	258.152	243.565	293.819	294.225	305.947	259.656	284.150	236.141	220.766	305.445	143.225	109.325	155.544	175.120	125.010	124.938	113.240	156.642	134.464	183.380	198.158	113.360	44.390
43.000	263.523	305.398	254.738	249.032	295.442	295.968	306.902	261.542	284.317	244.353	220.909	302.986	156.929	113.861	159.220	169.247	122.885	122.694	112.118	154.804	134.320	174.332	197.824	116.081	33.742
44.000	249.534	299.859	251.062	254.762	297.090	297.949	307.809	263.285	284.365	252.112	221.077	299.787	170.274	119.041	163.088	163.661	121.333	120.736	111.187	153.133	134.249	167.003	197.513	118.874	31.757
45.000	236.785	293.055	247.695	259.465	299.023	299.859	308.573	264.932	284.819	257.889	221.172	297.400	182.306	125.463	166.932	158.838	119.567	118.683	110.399	151.748	134.177	160.677	197.370	121.429	39.427
46.000	226.257	284.866	244.138	263.523	300.312	301.673	309.719	265.935	284.628	263.452	221.124	294.416	193.049	134.249	171.300	155.019	118.373	117.179	109.564	150.650	134.201	155.950	197.036	124.532	48.767
47.000	220.241	274.959	240.271	266.937	301.626	303.082	310.268	266.985	284.508	267.630	221.435	291.646	199.805	145.087	175.598	151.342	117.108	115.556	108.895	149.576	134.225	151.509	196.964	126.920	47.549
48.000	226.305	262.019	237.310	270.447	302.939	304.419	310.960	268.155	284.556	271.569	221.817	289.164	193.646	157.525	179.704	148.430	115.986	114.219	108.274	148.692	134.177	147.833	196.749	129.044	39.833
49.000	234.135	248.149	234.135	273.073	303.392	305.994	311.772	268.943	284.675	274.529	221.817	286.824	185.123	171.539	183.404	145.398	114.959	112.763	107.534	147.618	134.153	144.061	196.248	131.670	32.795
50.000	241.488	232.942	231.557	276.009	304.562	307.164	311.987	270.256	284.675	277.537	221.936	283.482	177.937	185.624	187.248	142.485	113.885	111.306	107.057	147.140	134.034	141.005	196.367	134.273	35.682
51.000	247.027	221.984	230.483	278.468	305.803	308.573	312.488	270.948	284.628	279.471	222.199	281.548	172.733	197.203	189.946	140.384	113.097	110.328	106.675	146.281	134.177	139.358	196.344	136.779	44.210
52.000	251.587	228.239	231.270	279.590	306.185	309.337	312.918	271.426	284.938	281.190	222.222	279.590	168.268	191.688	189.850	138.928	112.596	109.588	106.484	145.851	134.058	137.901	196.248	138.427	47.955
53.000	255.192	238.122	232.846	280.975	306.639	309.766	312.942	271.855	284.866	282.073	222.199	278.373	164.162	181.829	187.821	137.424	111.784	108.991	106.269	145.445	134.153	136.923	196.129	139.955	43.172
54.000	258.844	247.218	234.923	282.312	307.188	310.077	312.965	272.046	285.272	283.362	222.270	276.893	160.366	172.279	185.911	136.445	111.474	108.394	105.983	145.063	134.225	135.896	196.200	141.220	36.314
55.000	262.497	255.192	237.000	283.124	307.427	310.674	313.491	272.763	285.033	283.983	222.342	275.436	157.263	163.756	183.547	135.466	111.115	108.227	105.863	144.896	134.129	134.917	196.105	142.724	34.148
56.000	265.457	262.019	238.814	283.935	308.119	310.936	313.419	272.954	284.819	284.532	222.342	273.980	153.992	157.072	181.375	134.822	110.686	107.630	105.505	144.371	134.034	134.368	196.057	143.894	39.292
57.000	268.418	267.439	240.844	284.628	308.740	311.819	313.777	273.813	285.129	285.415	222.246	273.383	151.533	151.891	179.417	134.177	110.590	107.606	105.457	144.299	134.058	133.628	196.105	145.040	46.421
58.000	270.781	272.166	242.610	285.320	308.549	311.700	313.849	273.741	285.153	286.203	222.413	271.784	149.098	147.403	177.484	133.604	110.160	107.200	105.434	144.013	134.058	133.079	196.153	146.185	45.473
59.000	273.192	275.794	244.401	286.179	309.289	312.106	313.896	273.789	284.484	286.370	222.628	270.232	146.567	143.512	175.550	132.936	109.826	106.914	105.266	143.679	134.249	132.482	195.890	147.618	40.149
60.000	275.556	278.707	245.905	286.108	309.408	312.034	314.302	274.195	284.819	287.373	222.557	269.062	144.634	140.551	173.664	132.649	109.683	106.842	105.243	143.536	134.201	131.814	195.962	149.098	34.645
61.000	276.797	281.620	247.337	286.896	309.313	311.915	314.016	274.195	284.723	288.137	222.604	267.988	142.199	137.878	172.064	132.052	109.349	106.675	105.075	143.297	134.153	130.954	195.914	150.674	36.901
62.000	278.993	283.888	248.913	287.421	309.552	312.273	314.159	274.601	284.914	288.567	222.724	266.030	140.241	135.371	170.513	131.599	109.301	106.603	104.980	143.177	134.153	130.596	195.771	152.369	43.398
63.000	280.903	286.490	250.083	287.707	309.957	312.488	314.231	274.744	284.866	289.116	222.485	264.001	138.331	133.389	169.104	131.121	109.086	106.412	105.052	143.010	134.177	129.904	195.604	154.064	45.925
64.000	282.909	288.137	251.921	288.352	310.172	312.679	314.135	274.458	285.105	289.880	222.533	262.306	136.684	131.360	167.719	130.739	108.895	106.245	104.813	142.867	134.225	129.044	195.532	155.974	42.360
65.000	284.604	290.047	253.139	288.328	310.101	312.679	314.541	274.887	284.747	290.429	222.748	259.728	134.893	129.498	166.263	130.548	108.776	106.102	104.884	142.724	134.273	128.424	195.532	158.456	37.623
66.000	285.845	291.646	254.595	288.591	309.886	313.013	314.565	275.365	285.057	291.479	223.201	257.078	133.318	127.779	164.711	130.071	108.609	106.078	104.789	142.437	134.320	127.755	195.484	160.796	36.179
67.000	287.874	293.556	255.717	289.235	310.244	313.109	314.517	275.054	284.699	292.172	222.915	254.452	131.336	126.012	163.064	129.689	108.561	106.030	104.646	142.509	134.082	126.896	195.389	163.518	39.788
68.000	289.378	294.965	257.507	289.259	310.817	313.371	314.780	275.556	284.986	292.745	223.058	251.133	130.214	124.652	161.846	129.402	108.418	105.911	104.574	142.175	134.201	126.394	195.365	166.669	44.345
69.000	290.715	295.968	259.202	289.832	310.578	313.395	314.613	275.627	284.747	293.318	223.082	248.268	128.853	123.267	160.486	128.949	108.155	105.792	104.526	142.223	134.535	125.654	195.269	169.510	43.353
70.000	291.670	297.281	260.348	289.928	311.056	313.443	314.637	275.675	284.771	293.700	222.963	245.786	127.898	122.384	159.077	128.710	108.060	105.625	104.479	142.008	134.368	125.225	195.174	172.518	40.285
71.000	292.482	298.116	261.566	290.023	310.602	313.514	314.947	275.938	284.580	294.225	223.321	243.016	127.111	121.405	157.764	128.495	107.869	105.601	104.550	141.888	134.392	124.843	195.269	175.311	37.803
72.000	293.031	298.856	262.569	290.357	311.342	313.491	314.732	275.938	284.628	294.654	223.201	241.011	126.514	120.784	156.761	128.185	107.892	105.601	104.502	141.841	134.368	124.508	195.174	177.579	38.525
73.000	293.628	299.238	263.356	290.811	311.223	313.491	314.828	276.057	284.484	294.654	223.058	239.483	125.965	120.307	155.926	128.066	107.678	105.505	104.383	141.936	134.488	124.341	195.150	179.250	41.728
74.000	294.105	299.214	264.192	291.050	311.438	313.682	314.995	275.985	284.604	294.989	223.082	237.597	125.654	120.116	155.210	128.042	107.630	105.266	104.407	141.697	134.320	124.246	195.102	180.826	43.533
75.000	294.463	300.098	264.980	290.882	311.390	313.825	314.971	276.439	285.010	295.060	223.058	235.806	125.105	119.376	154.589	127.779	107.558	105.362	104.431	141.673	134.368	123.912	195.150	182.306	41.683
76.000	295.156	300.312	265.171	291.002	311.056	313.634	315.019	276.415	284.986	295.657	222.939	234.493	124.485	119.089	153.897	127.636	107.725	105.553	104.383	141.602	134.225	123.601	195.198	184.097	39.472
77.000	295.562	300.981	266.173	291.169	311.390	313.825	314.923	276.344	284.556	295.323	223.583	232.416	123.912	118.612	153.228	127.540	107.511	105.362	104.335	141.459	134.368	123.553	194.959	186.030	38.931
78.000	295.848	301.124	266.508	291.169	311.438	313.753	315.090	276.224	284.938	295.896	223.201	231.127	123.601	118.230	152.798	127.397	107.534	105.314	104.288	141.506	134.249	123.171	195.078	187.988	39.698
79.000	296.636	301.697	267.057	291.575	311.581	313.849	314.899	276.678	284.819	296.182	223.392	228.907	123.052	117.967	152.297	127.302	107.630	105.362	104.407	141.315	134.201	122.933	195.054	189.540	42.044
80.000	297.066	302.222	267.463	291.336	311.796	313.920	314.899	276.511	284.580	296.206	223.297	227.737	122.837	117.681	151.772	127.349	107.487	105.290	104.264	141.220	134.249	122.837	194.935	190.829	41.999
81.000	296.899	302.389	267.725	291.742	311.485	313.729	314.899	276.391	284.532	296.493	223.321	226.496	122.121	117.370	151.223	127.015	107.272	105.147	104.383	141.435	134.535	122.646	195.007	191.808	40.465
82.000	297.233	302.175	268.346	291.670	311.533	313.705	314.899	276.391	284.699	296.564	223.297	225.899	122.121	117.203	150.936	126.943	107.176	105.171	104.216	141.244	134.225	122.575	194.887	192.882	39.247
83.000	297.877	302.485	268.561	291.623	311.438	313.801	315.257	276.463	284.819	296.755	223.297	225.421	122.145	116.988	150.650	126.991	107.272	105.219	104.192	141.148	134.464	122.431	194.983	193.336	39.112
84.000	297.543	302.962	268.800	292.052	311.509	313.538	314.899	276.702	284.866	296.875	223.464	224.777	121.644	116.964	150.316	126.753	107.320	105.338	104.407	141.220	134.249	122.217	194.959	193.909	40.555
85.000	298.522	302.628	269.301	292.267	311.533	313.801	315.186	276.726	284.747	297.018	223.177	223.726	121.333	116.630	150.005	126.753	107.200	105.099	104.335	141.196	134.344	121.978	194.935	195.269	41.593
86.000	299.143	303.273	269.611	292.243	311.724	314.016	314.995	276.749	284.962	297.495	223.130	222.222	120.617	116.033	149.504	126.800	107.248	105.147	104.264	141.100	134.249	121.476	194.911	197.084	40.691
87.000	299.525	303.750	270.256	292.315	311.414	313.634	315.019	276.726	284.556	297.997	223.726	220.647	119.638	115.651	148.812	126.609	107.081	105.052	104.240	140.886	134.249	121.118	194.792	198.635	40.059
88.000	300.575	304.156	271.139	292.315	311.819	314.016	315.281	276.964	284.413	298.068	223.440	220.408	119.423	115.436	148.382	126.466	107.057	105.028	104.216	141.005	134.464	120.736	194.720	199.423	39.924
89.000	300.623	304.514	271.473	292.196	311.748	313.729	315.138	277.394	284.890	298.307	223.344	220.432	119.256	115.102	147.618	126.180	107.033	105.123	104.120	140.838	134.368	120.498	194.840	199.519	40.149
90.000	300.599	304.037	271.712	292.339	312.178	314.159	315.186	277.251	284.723	298.116	223.273	220.599	119.352	115.222	147.522	126.371	107.009	105.028	104.216	140.814	134.344	120.665	194.792	199.399	40.194
91.000	299.978	304.395	271.712	292.745	311.748	314.016	315.090	277.036	284.986	298.235	223.297	220.122	119.256	115.317	147.284	126.347	107.009	104.980	104.168	140.790	134.297	120.689	194.959	199.328	40.285
92.000	300.456	304.204	271.855	292.315	311.819	314.135	315.424	277.131	284.795	298.212	223.583	220.408	119.352	115.604	147.451	126.323	106.961	105.147	104.120	140.671	134.273	120.713	194.983	199.352	40.285
93.000	299.954	303.679	271.688	292.745	311.867	313.801	315.019	276.940	284.795	298.665	223.488	220.599	119.232	115.604	147.284	126.299	106.985	105.004	104.144	140.838	134.225	120.689	195.007	199.399	40.059
94.000	300.336	303.655	272.190	292.649	311.963	314.135	315.377	276.988	284.699	298.474	223.440	220.480	119.018	115.436	147.236	126.371	106.866	104.932	104.049	140.718	134.344	120.593	194.983	199.543	40.014
95.000	300.456	304.204	271.951	292.601	312.369	314.064	315.162	277.084	284.962	298.403	223.512	220.193	118.874	115.532	147.331	126.251	106.818	104.884	104.120	140.766	134.344	120.569	194.911	199.638	40.194
96.000	300.623	303.726	272.309	292.386	311.843	314.278	315.162	277.346	284.795	298.785	223.440	220.050	118.779	115.484	147.403	126.347	107.057	105.099	104.144	140.790	134.273	120.545	194.983	199.590	40.285
97.000	300.981	304.275	272.237	292.745	312.488	313.920	315.377	277.084	284.986	298.594	223.631	220.241	118.588	115.198	147.188	126.227	106.818	104.956	104.097	140.599	134.153	120.283	194.911	199.710	40.239
98.000	300.862	304.538	272.022	292.649	311.891	313.753	314.851	277.084	285.010	298.904	223.440	220.217	118.516	115.222	147.045	126.227	106.914	105.028	104.192	140.647	134.153	120.235	194.983	199.686	40.330
99.000	301.100	304.395	272.190	292.792	312.010	314.040	315.042	277.394	284.747	298.474	223.344	220.289	118.445	115.365	147.069	126.156	106.914	105.075	104.264	140.671	134.177	120.116	195.007	199.781	40.285
100.000	301.220	304.275	272.404	292.339	311.676	313.825	315.114	277.370	285.153	299.023	223.368	220.241	118.325	115.055	146.926	126.275	107.033	104.908	104.120	140.623	134.249	120.044	194.935	199.781	40.149
101.000	301.864	304.275	272.619	292.482	311.987	314.135	315.568	277.418	284.747	298.713	223.153	220.265	118.158	115.222	147.140	126.156	106.794	104.908	104.168	140.480	134.344	120.163	195.007	199.543	39.924
102.000	301.912	304.228	272.404	292.840	312.106	314.231	315.019	277.275	284.604	298.641	223.440	220.169	117.872	115.007	147.140	126.275	106.794	105.028	104.168	140.527	134.129	119.949	194.983	199.543	40.104
103.000	301.769	304.634	272.595	292.625	311.867	314.207	315.257	277.322	284.747	299.477	223.464	220.456	117.800	115.055	146.902	126.180	106.818	104.789	104.120	140.551	134.201	119.853	194.935	199.471	40.285
104.000	301.936	304.610	272.595	292.792	312.082	313.896	315.138	277.227	284.962	299.381	223.535	220.599	117.609	114.696	146.687	126.203	106.818	105.028	104.120	140.551	134.201	119.638	194.935	199.304	40.646
105.000	302.413	304.848	272.810	292.983	312.106	314.040	315.424	277.322	284.747	299.358	223.297	221.029	117.394	114.696	146.567	126.084	106.914	105.004	104.120	140.575	134.129	119.304	194.911	199.208	40.375
106.000	302.103	304.681	272.930	292.936	312.130	314.350	315.162	277.561	284.699	299.286	223.703	220.886	117.418	114.673	146.400	126.084	106.794	105.052	104.025	140.456	134.249	119.543	195.031	199.232	39.969
107.000	302.151	304.538	272.834	292.577	312.034	314.207	315.257	277.466	285.129	299.716	223.249	220.814	117.490	114.840	146.496	126.108	106.890	105.004	104.049	140.504	134.177	119.352	194.983	199.376	39.698
108.000	302.198	304.490	272.810	292.697	312.201	314.255	315.377	277.346	284.842	299.668	223.273	220.862	117.394	114.792	146.663	125.989	106.866	104.980	104.049	140.527	134.273	119.471	194.911	199.399	39.969
109.000	301.697	304.634	272.619	292.959	312.130	314.016	315.019	277.275	284.795	299.453	223.392	220.360	117.418	114.959	146.591	125.989	106.770	105.075	104.049	140.456	134.129	119.495	194.959	199.399	40.330
110.000	302.342	304.896	272.763	292.745	311.963	314.207	315.424	277.489	284.675	299.262	223.392	220.432	117.251	114.983	146.639	126.108	106.842	104.908	104.073	140.480	134.201	119.447	194.911	199.471	40.510
111.000	302.891	304.490	272.452	292.959	312.273	314.302	315.424	277.513	284.938	299.405	223.464	220.575	117.132	114.983	146.830	126.060	106.818	104.980	104.001	140.432	134.273	119.352	195.102	199.423	40.149
112.000	302.485	304.896	272.643	292.864	311.987	313.920	315.019	277.489	285.105	299.668	223.225	220.432	117.132	114.864	146.711	126.060	106.890	104.980	104.192	140.456	134.177	119.256	195.054	199.304	39.743
113.000	302.342	304.729	272.667	292.888	312.273	313.968	315.090	277.346	284.842	299.549	223.297	220.742	116.917	114.768	146.615	126.084	107.009	105.052	104.240	140.384	134.153	119.209	195.126	199.328	39.833
114.000	302.724	304.538	272.643	292.888	311.772	314.016	315.329	277.657	285.105	299.668	223.058	220.575	117.036	115.031	146.711	126.060	106.723	104.884	104.097	140.384	134.273	119.328	195.078	199.423	40.239
115.000	302.509	304.443	272.357	292.697	312.106	314.111	315.353	277.466	284.651	300.002	223.082	220.671	117.012	114.935	146.782	126.084	106.842	104.837	104.097	140.456	134.249	119.161	195.007	199.352	40.600
116.000	302.771	304.395	272.524	292.768	312.106	314.135	315.114	277.203	284.699	299.811	223.297	220.718	116.893	114.816	146.854	126.084	106.723	104.932	104.097	140.360	134.177	119.232	195.007	199.352	40.420
117.000	302.891	304.729	272.715	293.127	312.178	314.231	315.186	277.513	284.866	299.954	223.368	220.599	116.582	114.864	146.854	126.156	106.818	104.813	104.120	140.313	134.106	119.065	194.983	199.304	39.969
118.000	303.034	304.872	272.619	293.007	312.154	313.920	315.114	277.609	284.842	300.193	223.201	220.933	116.487	114.696	146.830	126.012	106.890	105.075	104.168	140.408	134.153	118.898	195.102	199.137	39.653
119.000	303.082	304.705	272.715	292.577	312.321	314.087	315.066	277.489	284.819	300.217	223.512	221.387	116.248	114.625	146.711	126.084	106.770	105.052	104.120	140.313	134.129	118.850	195.126	198.946	39.924
120.000	303.631	304.610	272.763	292.745	312.249	314.135	315.257	277.848	284.914	300.098	223.416	221.387	116.559	114.673	146.591	126.108	106.770	104.837	104.144	140.265	134.225	118.755	194.983	198.755	40.600
121.000	303.153	304.657	272.810	293.007	312.583	313.992	314.971	277.418	284.675	300.193	223.440	221.435	116.200	114.458	146.591	126.036	106.842	104.908	104.073	140.265	134.106	118.636	194.911	198.635	40.781
122.000	303.368	305.111	272.954	292.959	312.130	314.278	315.210	277.609	284.938	300.169	223.703	221.482	116.200	114.553	146.448	125.941	106.723	104.884	104.097	140.313	134.225	118.827	194.935	198.635	40.330
123.000	303.321	304.920	272.906	292.625	312.225	314.016	315.042	277.489	285.368	300.623	223.344	221.888	116.320	114.434	146.496	126.012	106.842	105.075	104.144	140.193	133.986	118.636	194.983	198.564	39.698
124.000	303.416	305.565	273.073	293.079	312.440	314.135	314.899	277.489	284.842	300.527	223.488	221.554	115.771	114.505	146.496	125.845	106.866	104.932	104.049	140.337	134.106	118.492	195.102	198.253	39.563
125.000	303.559	305.278	273.025	292.983	312.106	314.087	315.210	277.728	284.866	300.312	223.321	222.151	115.866	114.362	146.567	126.012	106.723	104.837	104.001	140.265	134.153	118.421	195.031	197.895	40.285
126.000	303.774	305.135	273.264	293.174	312.345	314.374	315.257	277.513	284.675	300.360	223.106	222.199	115.651	114.123	146.138	125.893	106.866	105.099	104.120	140.360	134.153	118.230	194.887	197.609	40.961
127.000	303.893	305.207	273.407	293.007	312.130	314.064	315.448	277.680	284.819	300.981	223.655	223.201	115.460	114.147	146.138	125.989	106.842	104.884	104.073	140.265	134.177	118.110	194.887	197.036	40.781
128.000	304.204	305.612	273.813	293.413	312.392	314.087	314.947	277.561	284.675	300.957	223.273	223.535	115.198	113.932	146.042	125.750	106.627	104.884	104.144	140.169	134.249	118.063	194.911	196.224	39.879
