-----------------------------------------------------
BloodHound 307 VOC Analyser V2017.1
RoboScientific Ltd 
Espace North
Wisbech Road
Littleport
Cambridgeshire, UK
CB6 1RA 
-----------------------------------------------------
Date = 24/03/2022
Time = 12:32:29
Data is protected by RoboScientific Limited
-----------------------------------------------------
Name of the experiment = "50a_Day 36"
-----------------------------------------------------
Repeat No. = 4/4
-----------------------------------------------------
Experimental Time (in sec) and Flow Profile :
-----------------------------------------------------
Baseline = 2.00
Absorb = 4.00
Pause = 1.00
Desorb = 5.00
Flush = 20.00
Wait = 5.00
Higher Flow (V) = 4.00
Medium Flow (V) = 3.00
Low Flow (V) = 1.00
-----------------------------------------------------
Total Profile Time = 37 in sec
-----------------------------------------------------
Acquired data point per second = 4
--------------------------------------------------
Total data point stored  = 128
-----------------------------------------------------
Acquired sensor responses from 24 sensors
-----------------------------------------------------

Data Points	 Sen-1	 Sen-2	 Sen-3	 Sen-4	 Sen-5	 Sen-6	 Sen-7	 Sen-8	 Sen-9	 Sen-10	 Sen-11	 Sen-12	 Sen-13	 Sen-14	 Sen-15	 Sen-16	 Sen-17	 Sen-18	 Sen-19	 Sen-20	 Sen-21	 Sen-22	 Sen-23	 Sen-24	Humidity (%r.h.)
0.000	305.684	306.949	274.267	293.628	312.464	314.398	315.424	277.919	284.842	301.458	223.726	228.501	113.622	112.476	145.254	125.296	106.460	104.717	103.977	139.883	134.225	117.251	194.672	190.829	42.044
1.000	305.923	306.925	274.410	293.843	312.583	314.422	315.353	278.134	284.747	301.602	223.679	229.408	113.718	112.381	144.610	125.201	106.556	104.813	104.144	139.955	134.225	117.251	194.577	190.328	40.736
2.000	305.541	306.997	274.911	293.700	312.249	314.493	315.377	277.943	284.938	301.840	223.822	229.361	113.431	112.309	144.443	125.248	106.484	104.741	103.953	139.907	134.249	117.227	194.672	190.160	39.427
3.000	305.589	307.164	275.007	293.700	312.464	313.968	315.257	277.967	284.890	301.840	223.655	229.050	114.100	112.214	143.989	125.201	106.532	104.837	104.073	139.811	134.249	117.108	194.649	190.065	39.202
4.000	305.803	307.069	275.341	293.365	312.416	314.255	315.472	277.824	285.105	302.055	223.583	229.599	113.813	112.285	143.798	125.177	106.579	104.837	104.073	139.907	134.320	117.108	194.577	189.826	40.465
5.000	306.281	307.093	275.365	293.723	312.321	314.422	315.257	278.230	284.819	301.840	223.894	229.552	113.503	112.261	143.798	125.344	106.603	104.741	104.025	139.811	134.106	116.964	194.672	189.635	42.225
6.000	306.138	307.188	275.532	294.153	312.798	314.398	315.472	277.848	284.914	302.031	223.965	230.172	113.383	112.285	143.512	125.057	106.484	104.789	104.097	139.859	134.297	116.964	194.720	189.277	41.774
7.000	306.161	307.116	275.818	293.270	312.225	314.207	315.735	278.444	284.962	302.294	223.822	230.316	113.431	112.070	143.416	125.105	106.365	104.717	104.001	139.859	134.177	116.869	194.529	189.086	39.788
8.000	306.257	307.379	276.224	293.461	312.345	314.422	315.424	278.110	284.556	301.912	223.846	230.530	113.407	112.261	143.249	125.153	106.365	104.670	103.953	139.883	134.273	116.893	194.696	188.823	39.247
9.000	305.994	307.522	276.415	293.485	312.345	314.398	315.329	277.919	284.771	302.270	223.989	230.793	113.192	112.142	143.225	125.057	106.508	104.789	104.001	139.740	134.153	116.773	194.529	188.322	39.112
10.000	304.371	306.066	275.938	293.580	312.178	314.087	315.233	278.349	285.201	301.602	223.512	248.555	114.553	113.001	143.273	125.105	106.532	104.598	103.882	139.596	133.986	117.442	194.863	169.343	41.638
11.000	277.800	290.286	273.622	292.196	311.891	313.968	315.329	277.728	285.702	290.405	221.506	287.039	143.106	129.283	145.254	126.060	106.747	105.075	104.120	140.289	133.294	129.164	196.558	131.933	36.675
12.000	232.989	248.221	267.296	289.665	311.342	313.180	314.732	276.224	286.108	259.537	220.241	302.652	188.442	172.900	152.249	129.068	107.701	105.744	104.311	141.530	132.673	161.035	197.919	115.580	37.938
13.000	245.451	252.709	257.746	284.986	310.077	312.034	314.756	272.906	286.514	234.971	219.047	310.817	174.022	165.857	161.441	133.843	108.704	106.556	104.479	144.514	132.554	184.311	199.065	107.343	48.812
14.000	267.081	278.110	247.433	276.821	308.740	311.079	313.849	269.635	285.821	220.265	218.355	316.403	150.148	140.289	171.563	140.909	109.707	107.582	105.052	148.048	132.697	197.681	199.853	101.757	50.572
15.000	286.132	294.822	238.838	267.486	307.403	310.053	313.443	265.815	285.344	233.897	217.686	320.486	132.721	123.482	182.043	150.721	111.330	108.800	105.457	151.867	133.389	183.547	200.808	98.415	40.239
16.000	299.525	306.161	234.064	258.080	305.636	308.525	312.798	261.160	284.747	247.266	217.114	322.992	119.376	113.431	188.943	160.414	113.145	110.017	106.006	156.332	134.010	171.396	201.453	96.815	29.682
17.000	309.599	313.252	234.302	250.202	303.583	306.949	312.560	256.839	284.293	259.704	216.421	324.807	109.373	106.388	185.768	168.841	114.959	111.664	106.699	161.584	134.989	159.149	201.954	95.120	32.389
18.000	316.976	318.385	238.122	242.921	301.554	304.825	311.342	251.229	282.813	271.020	216.087	325.093	102.664	101.017	179.465	176.003	117.322	113.980	107.678	167.099	135.801	148.048	202.097	93.927	45.112
19.000	320.963	321.560	243.040	235.711	298.546	302.294	310.578	244.926	281.954	280.116	215.944	326.860	98.128	97.484	172.279	182.473	119.829	116.248	108.442	172.804	136.755	138.307	202.575	92.685	53.505
20.000	325.212	324.353	247.075	228.955	296.588	299.859	309.265	239.005	280.975	287.898	215.944	327.218	94.738	94.571	166.072	189.205	122.599	119.089	109.731	178.630	137.758	130.071	203.004	92.542	46.240
21.000	328.053	326.335	251.014	222.772	293.389	296.493	307.976	232.774	279.996	294.249	215.538	328.173	92.494	92.661	160.677	195.986	125.081	121.882	111.139	185.242	138.761	123.912	203.052	92.232	32.930
22.000	329.128	327.695	255.359	217.424	290.405	292.912	305.947	227.331	278.970	298.880	215.657	329.032	90.465	91.563	156.212	201.429	128.209	125.607	113.025	191.545	139.835	119.614	202.909	91.157	28.644
23.000	331.014	328.698	258.820	220.480	287.206	289.092	304.371	221.936	277.848	302.676	215.729	329.199	88.794	90.369	152.369	198.540	131.527	129.474	114.649	197.418	141.268	115.818	203.195	90.895	38.570
24.000	331.396	329.605	261.661	226.018	283.553	284.771	302.103	218.236	276.487	305.708	215.442	329.701	87.624	89.773	149.026	192.452	135.228	133.652	116.845	200.784	142.461	112.548	203.291	90.990	51.745
25.000	332.613	329.963	264.741	230.339	279.519	280.450	300.217	220.098	275.054	307.498	215.562	329.916	87.719	88.818	145.995	188.847	139.000	137.543	119.018	198.588	143.607	110.781	203.410	89.868	51.655
26.000	332.327	330.608	266.173	230.268	277.752	278.898	298.976	220.050	275.054	307.427	215.204	330.441	87.576	88.746	145.135	188.609	140.718	139.668	120.522	198.755	144.085	111.044	203.577	90.369	38.705
27.000	332.207	330.918	265.696	229.337	278.373	279.161	298.379	219.835	274.816	307.427	215.586	330.202	87.528	87.743	145.183	189.444	140.527	139.429	120.689	199.113	143.989	111.139	203.601	90.131	28.193
28.000	332.255	330.512	266.532	228.358	278.540	279.137	298.188	219.549	275.078	307.451	215.824	329.868	86.788	88.627	145.278	190.686	140.122	139.334	120.808	199.304	143.774	111.569	203.553	90.727	32.705
29.000	332.566	331.205	266.579	227.546	278.779	279.232	297.949	219.596	275.054	307.331	215.633	330.441	86.955	88.388	144.872	191.712	139.883	139.262	121.071	199.256	143.750	111.951	203.362	91.014	46.466
30.000	332.231	331.443	266.770	230.435	277.633	277.633	296.946	220.886	274.983	308.119	215.681	330.512	86.430	87.481	144.467	187.916	140.957	140.695	122.455	196.988	144.228	110.089	203.458	91.372	54.001
31.000	332.804	330.990	269.062	235.520	273.885	274.171	295.084	222.700	273.789	308.931	215.562	330.321	86.741	88.340	142.437	183.070	144.610	144.037	123.959	195.699	145.016	109.802	203.434	90.895	45.067
32.000	331.396	331.372	270.662	237.358	271.354	272.524	294.034	221.458	274.362	306.376	215.705	329.175	88.674	88.006	141.124	181.494	147.594	146.138	125.296	196.845	144.347	112.691	203.124	91.802	31.441
33.000	329.581	330.345	271.163	236.976	272.118	273.121	293.962	220.384	275.938	299.978	215.896	327.791	89.987	89.176	141.148	181.829	147.117	145.517	125.105	198.468	142.533	118.301	202.598	92.303	29.185
34.000	327.457	329.772	270.877	234.828	273.431	275.054	294.893	225.732	278.015	292.124	216.469	325.618	92.566	89.796	141.029	184.025	145.374	143.607	124.007	192.214	140.671	126.371	201.858	94.165	39.879
35.000	324.807	328.531	270.232	230.554	275.818	276.988	296.230	232.703	279.710	282.002	217.376	323.613	95.096	90.727	141.482	187.725	142.509	141.530	122.885	185.266	139.191	137.066	201.262	95.669	52.061
36.000	321.297	327.242	269.802	225.565	278.803	279.566	297.639	238.767	281.047	270.447	218.021	322.085	98.510	92.781	142.485	193.097	139.692	138.832	121.405	179.059	137.949	148.859	200.474	98.080	50.527
37.000	316.308	324.353	268.728	219.740	282.360	282.837	299.262	244.043	281.787	256.481	218.403	319.745	102.998	94.595	143.822	199.113	137.066	136.302	119.925	173.043	136.755	162.825	199.758	100.826	38.299
38.000	311.724	322.730	266.914	217.901	284.771	284.842	300.384	248.507	282.622	241.823	219.095	316.451	107.892	96.720	145.278	200.689	133.676	133.318	118.445	168.101	136.063	177.842	199.017	103.619	29.366
39.000	304.968	320.175	264.956	224.467	287.349	287.612	302.007	252.351	283.506	227.403	219.716	312.989	114.338	99.107	147.690	194.147	130.883	130.692	116.821	164.258	135.538	191.402	198.683	105.911	33.878
40.000	296.373	316.523	262.783	231.987	290.405	290.548	303.631	255.359	284.007	219.572	220.098	310.220	123.362	102.211	150.292	186.699	128.519	128.304	115.389	160.939	135.037	200.020	198.421	108.728	45.925
41.000	284.437	313.395	260.277	239.459	292.649	292.673	304.801	257.937	284.413	230.745	220.456	307.976	134.678	105.863	153.371	179.417	126.203	126.132	114.291	158.385	134.678	188.991	198.086	111.545	51.384
42.000	271.831	309.193	257.388	246.000	294.440	294.750	305.947	260.110	284.890	240.438	220.313	304.299	148.095	109.969	156.738	172.733	124.294	123.864	112.954	156.188	134.392	179.131	197.967	114.816	43.398
43.000	257.460	304.490	253.712	251.754	296.135	296.564	306.973	261.852	284.795	248.006	220.742	301.745	162.396	114.768	160.104	166.693	122.240	121.811	111.879	154.326	134.320	170.680	197.681	117.776	33.697
44.000	243.995	298.952	250.178	257.078	297.997	298.952	308.119	263.547	284.914	254.977	220.862	297.997	175.144	120.545	164.687	160.987	120.522	119.734	110.805	152.775	134.153	163.589	197.418	120.498	31.892
45.000	232.918	290.787	246.740	262.043	299.763	300.838	309.193	265.171	284.389	260.253	221.196	296.087	186.245	128.018	168.746	156.690	118.946	117.943	109.946	151.438	134.297	158.337	197.275	123.004	39.833
46.000	224.013	281.787	242.252	265.600	300.838	302.294	309.742	266.269	284.723	265.242	221.387	292.649	195.580	137.352	172.924	152.942	117.657	116.415	109.301	150.363	134.153	153.706	197.012	125.583	48.632
47.000	220.480	271.044	239.220	269.229	301.912	303.965	310.602	267.510	284.866	269.086	221.817	290.357	199.185	148.788	177.293	149.576	116.654	114.935	108.513	149.408	134.106	149.838	196.749	128.209	47.278
48.000	227.594	257.770	236.212	271.951	303.130	305.469	311.175	268.561	284.771	272.691	221.793	288.280	192.285	161.870	181.208	146.878	115.460	113.646	108.083	148.477	134.129	146.615	196.678	130.477	39.337
49.000	235.233	243.279	233.228	274.290	304.180	306.591	311.819	269.444	284.747	275.174	222.175	286.036	184.025	176.433	184.765	144.109	114.840	112.405	107.415	147.594	134.010	143.416	196.439	132.339	32.840
50.000	243.685	229.313	230.960	277.012	304.992	307.713	311.939	270.089	284.699	278.277	221.936	283.147	176.051	189.277	188.489	141.602	113.670	111.044	107.033	146.949	134.129	140.456	196.391	135.586	35.998
51.000	250.608	223.344	230.793	279.280	306.185	309.026	312.583	271.139	284.819	280.545	222.342	280.593	169.271	196.917	190.160	139.740	113.001	109.993	106.675	146.329	134.153	138.427	196.367	137.687	44.345
52.000	256.552	234.422	231.915	280.760	306.448	309.838	312.965	271.449	284.962	282.455	222.509	278.086	163.565	185.601	189.349	137.806	112.261	109.110	106.221	145.780	134.106	136.660	196.176	140.026	47.684
53.000	261.256	245.857	233.729	282.264	307.045	310.220	313.347	271.784	284.723	284.150	222.175	276.105	158.456	174.165	187.105	136.421	111.617	108.656	106.126	145.398	134.368	135.084	195.986	142.413	42.856
54.000	265.219	254.714	235.878	283.458	307.618	310.817	313.300	272.500	284.771	285.201	222.509	273.216	154.016	164.114	184.574	135.514	111.092	107.916	105.696	144.872	134.344	133.843	196.009	144.490	36.269
55.000	269.635	263.165	238.504	284.819	308.358	311.390	313.467	272.739	284.890	286.896	222.700	271.354	150.005	155.878	181.805	134.225	110.590	107.606	105.553	144.419	134.273	132.243	195.818	147.069	34.645
56.000	272.739	270.184	241.250	285.272	308.453	311.557	313.968	273.503	284.532	287.421	222.461	268.919	146.806	149.265	178.797	133.389	110.351	107.224	105.481	144.204	134.273	131.288	195.604	149.313	39.788
57.000	275.580	275.460	243.685	286.060	308.788	311.987	313.968	273.550	284.986	288.686	222.772	266.436	144.395	143.989	176.314	132.745	109.993	107.009	105.410	143.870	134.201	130.334	195.532	151.294	45.879
58.000	278.086	280.044	245.833	287.134	309.241	312.201	313.705	273.932	285.057	289.689	222.772	264.120	141.673	139.644	173.926	132.100	109.588	106.699	105.266	143.727	134.201	129.784	195.436	153.610	44.661
59.000	280.163	283.052	247.934	287.325	309.719	312.703	314.469	274.219	284.675	289.713	223.201	262.401	139.596	136.087	171.778	131.432	109.277	106.412	105.052	143.464	134.416	128.949	195.436	156.117	39.924
60.000	281.667	285.750	250.035	287.803	309.719	312.918	314.613	274.434	285.057	290.405	223.130	260.014	138.021	133.891	169.581	130.954	108.991	106.126	105.123	143.345	134.511	128.591	195.484	158.265	35.682
61.000	283.219	288.113	251.826	288.424	309.981	312.846	314.565	274.720	284.842	291.288	222.795	257.603	136.517	131.456	167.600	130.620	108.943	106.126	104.813	142.986	134.273	127.946	195.508	160.295	37.623
62.000	284.795	290.142	253.473	288.877	310.148	313.061	314.374	274.863	284.842	291.766	223.034	254.905	134.941	129.641	166.168	130.047	108.680	106.054	104.741	142.843	134.249	127.254	195.365	162.682	42.902
63.000	286.490	291.527	254.738	288.782	310.196	312.942	314.469	275.221	284.819	292.267	223.010	252.924	133.509	127.946	164.473	129.928	108.680	106.030	104.813	142.581	134.368	126.872	195.317	165.404	44.526
64.000	287.469	293.294	256.027	289.235	310.292	313.204	314.517	274.983	284.747	293.103	223.201	250.465	132.243	126.323	163.112	129.331	108.346	105.768	104.717	142.461	134.320	126.394	195.365	167.863	41.909
65.000	288.352	294.010	257.698	289.522	310.745	313.252	314.469	275.293	284.699	292.673	223.249	248.579	131.145	125.248	161.846	129.068	108.298	105.696	104.526	142.342	134.320	126.180	195.317	169.963	38.299
66.000	289.211	295.251	258.606	289.784	310.841	313.395	314.875	275.508	284.675	293.031	222.963	246.263	130.477	124.604	160.724	129.044	108.083	105.601	104.550	142.270	134.273	125.941	195.174	172.064	37.487
67.000	290.119	295.896	259.226	290.262	311.079	313.467	314.995	275.723	284.890	293.485	223.058	244.783	129.832	123.506	159.698	128.710	108.060	105.648	104.574	142.175	134.249	125.726	195.341	173.688	40.285
68.000	291.050	296.612	260.587	289.999	311.175	313.395	314.660	275.556	284.651	293.437	223.010	242.348	129.020	122.813	158.958	128.710	108.036	105.529	104.407	142.055	134.440	125.487	195.174	175.383	43.939
69.000	291.742	297.686	261.303	290.190	311.056	313.610	314.995	275.866	284.604	293.819	223.058	240.605	127.946	121.930	157.979	128.424	107.916	105.457	104.574	141.912	134.225	124.890	195.102	177.531	43.172
70.000	292.172	298.594	262.210	290.405	310.912	313.491	314.732	275.723	284.747	294.702	223.058	238.074	126.848	121.118	157.143	128.304	107.845	105.457	104.455	141.769	134.368	124.580	195.126	180.253	39.833
71.000	293.556	298.832	262.879	291.121	311.485	313.538	314.780	276.009	284.604	294.726	223.321	236.021	126.132	120.498	156.356	127.922	107.654	105.481	104.455	141.721	134.249	124.222	195.126	182.330	38.796
72.000	293.891	299.525	263.977	291.193	311.223	313.538	314.684	276.105	284.675	295.013	223.153	233.825	125.654	119.758	155.472	127.898	107.654	105.386	104.431	141.841	134.392	123.935	195.054	184.264	38.931
73.000	294.654	300.289	264.813	291.026	311.438	313.873	315.090	276.320	284.699	295.586	223.106	232.154	124.986	119.185	154.637	127.660	107.534	105.362	104.431	141.554	134.273	123.649	195.150	186.245	41.638
74.000	294.631	300.503	265.099	291.479	311.390	313.562	314.804	275.962	284.651	296.135	223.249	230.721	124.485	118.970	154.040	127.469	107.558	105.219	104.407	141.602	134.344	123.219	195.031	187.797	42.541
75.000	295.251	300.838	265.911	291.408	311.127	313.562	314.947	276.320	284.866	295.824	223.631	229.504	124.126	118.683	153.276	127.325	107.534	105.362	104.431	141.459	134.297	123.267	195.054	189.253	40.961
76.000	295.920	301.100	266.388	291.670	311.581	313.610	314.708	276.320	284.604	296.159	223.583	228.716	123.721	118.564	153.085	127.254	107.415	105.290	104.383	141.411	134.344	123.028	195.031	189.969	39.202
77.000	296.111	301.387	266.842	291.288	311.581	313.968	314.995	276.702	284.914	296.135	223.082	227.880	123.601	118.206	152.536	127.278	107.391	105.219	104.311	141.411	134.225	123.004	195.174	190.853	39.202
78.000	295.896	301.745	266.937	291.790	311.509	313.586	314.804	276.129	284.365	296.326	223.416	227.069	123.100	117.967	152.034	127.134	107.320	105.195	104.359	141.363	134.344	122.837	194.911	191.569	40.194
79.000	296.946	301.697	267.391	291.790	311.485	313.825	314.947	276.511	284.842	296.588	223.201	226.114	122.646	117.800	152.011	127.111	107.248	105.314	104.407	141.315	134.177	122.718	195.102	192.691	41.774
80.000	297.472	302.055	267.749	291.885	311.772	313.729	315.233	276.391	284.747	296.493	223.368	224.968	122.264	117.418	151.557	126.800	107.320	105.290	104.383	141.291	134.368	122.431	194.983	193.885	41.232
81.000	297.997	302.557	267.988	291.933	311.987	313.944	314.971	276.582	284.962	296.922	223.344	223.344	121.333	116.941	151.080	126.729	107.224	105.099	104.264	141.148	134.392	122.073	194.935	195.627	39.924
82.000	298.999	302.748	268.561	292.386	311.748	314.064	315.233	276.726	284.532	297.400	223.392	222.103	120.808	116.678	150.530	126.753	107.176	104.932	104.288	141.053	134.392	121.667	194.983	197.370	39.247
83.000	299.119	303.774	269.372	292.339	311.390	313.944	314.995	276.678	284.890	297.663	223.512	220.909	120.450	116.129	149.767	126.490	106.914	104.980	104.311	141.029	134.368	121.429	194.887	198.540	39.788
84.000	299.095	303.631	269.826	292.005	311.987	314.207	315.042	277.036	284.723	297.591	223.368	220.742	120.187	115.866	149.385	126.514	107.057	105.004	104.264	140.957	134.273	120.999	194.911	198.970	40.330
85.000	299.596	303.488	270.065	292.219	311.533	313.968	315.162	277.155	285.153	297.925	223.870	220.695	120.259	115.962	149.146	126.514	107.081	105.028	104.240	140.909	134.368	121.285	194.935	198.922	40.600
86.000	299.381	303.321	270.829	292.267	311.915	313.801	314.899	276.893	284.771	297.734	223.464	220.623	120.498	115.938	148.859	126.347	107.081	105.099	104.264	140.886	134.368	121.166	194.887	198.755	40.510
87.000	299.453	303.225	270.351	292.482	311.796	313.968	315.424	276.821	284.604	297.591	223.559	220.790	120.163	116.129	148.955	126.514	106.890	105.004	104.097	140.886	134.392	121.095	194.792	198.707	39.879
88.000	299.286	303.822	270.518	292.291	311.819	313.896	315.233	277.036	284.580	297.710	223.488	220.909	120.020	116.009	148.716	126.514	107.176	104.884	104.192	140.838	134.320	121.214	195.007	198.755	39.698
89.000	299.572	303.631	270.542	292.172	311.891	314.255	315.186	277.084	284.723	297.901	223.297	220.575	120.068	116.057	148.788	126.418	106.961	105.004	104.097	140.718	134.297	121.190	194.959	198.970	40.194
90.000	299.978	303.177	270.471	292.148	312.154	314.087	315.424	277.275	284.771	298.045	223.703	220.432	119.996	116.009	148.692	126.442	107.057	105.052	104.168	140.814	134.225	121.071	194.959	198.946	40.555
91.000	300.145	303.703	270.327	292.577	311.987	313.896	315.233	277.275	284.962	298.045	223.512	220.122	119.471	115.962	148.859	126.466	107.129	105.123	104.168	140.718	134.177	120.784	194.887	199.208	40.465
92.000	300.360	303.726	271.330	292.577	311.772	314.278	315.114	277.155	284.795	298.522	223.392	220.241	119.304	115.795	148.644	126.418	106.985	104.884	104.144	140.718	134.368	120.617	194.935	199.399	40.149
93.000	300.217	303.989	270.781	292.363	311.891	313.849	315.162	277.466	284.890	298.045	223.368	220.289	119.185	115.723	148.501	126.227	106.938	104.980	104.240	140.862	134.249	120.665	194.959	199.638	40.149
94.000	300.480	303.535	270.924	292.100	312.034	314.016	315.305	277.489	284.914	298.641	223.488	219.978	118.994	115.771	148.477	126.371	107.057	105.004	104.144	140.647	134.201	120.569	195.150	199.662	40.149
95.000	300.289	303.726	270.805	292.291	312.178	314.541	315.138	277.537	284.508	298.355	223.368	220.336	118.850	115.651	148.286	126.156	106.794	105.052	104.311	140.838	134.273	120.522	195.054	199.734	40.239
96.000	301.148	303.297	270.757	292.673	312.154	314.446	315.472	277.585	285.010	298.426	223.106	219.811	119.113	115.580	148.358	126.180	106.842	105.028	104.335	140.814	134.129	120.331	194.959	199.638	40.330
97.000	300.671	303.583	270.900	292.434	311.963	314.111	315.281	277.155	284.723	298.665	223.344	220.050	118.612	115.675	148.095	126.299	106.818	104.861	104.049	140.647	134.273	120.378	194.863	199.686	40.285
98.000	301.172	303.655	270.996	292.792	312.297	314.016	315.162	277.155	284.771	298.856	223.703	220.313	118.540	115.556	148.262	126.180	106.914	105.052	104.144	140.647	134.225	120.283	195.150	199.877	40.194
99.000	301.076	303.965	271.449	292.673	311.915	314.135	315.162	277.370	284.795	298.856	223.368	220.193	118.254	115.508	148.024	126.132	106.866	104.956	104.049	140.647	134.249	120.092	194.959	199.662	40.194
100.000	301.363	304.347	271.306	292.840	312.058	314.064	315.090	277.442	284.938	299.167	223.416	220.408	117.967	115.150	147.928	126.036	106.866	105.052	104.216	140.575	134.153	119.805	194.935	199.638	40.194
101.000	302.127	304.395	271.426	292.673	312.130	314.231	315.424	277.394	284.842	299.381	223.679	220.671	117.513	114.959	147.713	126.203	106.985	104.932	104.097	140.575	134.201	119.590	194.935	199.376	39.924
102.000	302.342	304.705	271.808	292.792	312.345	314.255	315.066	277.298	284.795	299.429	223.201	220.695	117.513	114.744	147.379	126.012	106.747	104.956	104.120	140.647	134.153	119.614	194.911	199.161	39.833
103.000	302.915	304.992	272.261	293.007	312.058	314.207	315.448	277.322	284.580	299.525	223.440	221.458	117.203	114.553	147.045	126.012	106.818	104.837	104.073	140.480	134.249	119.399	194.863	198.683	40.465
104.000	302.366	305.230	272.381	293.007	312.034	314.040	314.995	277.489	284.699	299.740	223.703	221.745	116.845	114.362	146.878	125.893	106.770	104.956	104.049	140.456	134.225	119.137	194.911	198.086	40.916
105.000	303.034	305.350	272.691	293.031	312.201	314.207	315.257	277.346	284.675	300.098	223.392	222.413	116.654	114.171	146.567	125.869	106.723	104.741	104.097	140.504	134.225	118.970	194.863	197.251	40.600
106.000	303.106	305.612	273.121	292.840	311.987	314.111	315.090	277.442	284.723	300.432	223.583	223.368	116.487	113.956	146.353	125.702	106.651	104.908	104.120	140.480	134.320	118.850	194.768	196.749	39.788
107.000	303.249	305.565	273.312	293.341	312.273	314.326	315.186	277.466	284.604	300.360	223.679	223.822	116.368	113.932	145.971	125.774	106.603	104.765	104.073	140.504	134.488	118.803	194.840	196.296	39.157
108.000	303.464	305.517	273.550	293.079	311.963	314.111	315.305	277.585	284.628	300.456	223.655	224.132	116.248	113.837	145.589	125.845	106.794	104.837	104.025	140.480	134.201	118.659	194.720	195.842	40.059
109.000	303.750	305.756	273.598	293.413	312.392	314.135	315.186	277.489	284.938	300.241	223.774	224.323	115.962	113.718	145.541	125.750	106.532	104.741	104.073	140.337	134.177	118.445	194.720	195.484	41.232
110.000	303.297	305.899	274.267	293.389	312.488	313.944	315.066	277.370	284.628	300.456	223.583	224.658	115.651	113.527	145.374	125.607	106.723	104.741	103.929	140.384	134.320	118.468	194.720	195.269	41.367
111.000	303.917	306.233	274.243	293.294	312.273	314.302	315.496	277.609	284.842	300.551	223.679	225.302	115.795	113.598	145.278	125.583	106.508	104.765	103.858	140.217	134.297	118.230	194.744	194.553	40.194
112.000	304.061	305.947	274.386	293.532	312.703	314.255	315.233	277.609	284.795	300.766	223.440	225.827	115.651	113.455	145.087	125.654	106.675	104.837	104.168	140.193	134.320	118.086	194.768	194.028	39.247
113.000	303.893	306.185	274.601	293.103	312.273	313.992	315.353	277.633	284.795	300.909	223.822	225.971	115.389	113.312	144.538	125.439	106.508	104.765	104.001	140.313	134.368	118.015	194.625	193.718	39.021
114.000	304.061	306.281	275.126	293.222	312.154	314.111	315.353	277.633	284.866	301.244	223.559	226.209	115.460	113.264	144.490	125.487	106.556	104.837	103.977	140.146	134.153	117.943	194.696	193.503	40.646
115.000	303.917	306.114	274.672	293.270	312.369	314.326	315.305	277.728	285.010	301.076	223.535	226.138	115.436	113.264	144.538	125.463	106.532	104.789	104.192	140.169	134.273	117.919	194.649	193.574	41.593
116.000	303.917	306.329	274.840	293.341	312.392	314.231	314.971	277.680	284.866	300.933	223.631	226.018	115.341	113.407	144.395	125.416	106.579	104.765	104.049	140.265	134.320	117.991	194.696	193.718	41.007
117.000	304.180	306.042	274.911	293.437	312.297	314.255	315.257	277.895	284.866	301.029	223.559	225.803	115.198	113.407	144.490	125.583	106.651	104.765	104.073	140.169	134.177	117.895	194.649	194.100	39.427
118.000	304.275	306.090	274.505	293.700	312.297	314.255	315.520	277.513	284.580	300.957	223.703	225.565	115.556	113.407	144.395	125.368	106.484	104.693	104.001	140.313	134.297	118.039	194.816	194.314	39.157
119.000	304.275	305.947	274.720	293.294	312.178	314.040	315.377	277.943	285.010	301.148	223.392	224.896	115.413	113.670	144.705	125.463	106.484	104.765	103.929	140.146	134.058	117.991	194.792	194.696	39.833
120.000	304.061	306.161	274.338	292.983	312.225	314.159	315.090	278.039	285.201	301.005	223.416	224.849	115.532	113.646	144.681	125.487	106.675	104.861	104.073	140.265	134.225	117.967	194.816	195.174	41.232
121.000	304.037	305.541	274.458	293.150	312.440	314.278	315.210	277.824	285.153	301.076	223.559	224.323	115.222	113.741	144.849	125.607	106.675	104.765	103.977	140.241	134.249	118.015	194.887	195.389	41.187
122.000	304.252	305.493	274.553	293.676	312.655	314.446	315.114	277.919	284.914	300.981	223.798	224.252	115.413	113.646	144.849	125.559	106.603	104.884	104.049	140.002	134.153	117.943	194.911	195.460	40.285
123.000	304.180	305.493	274.386	293.341	312.273	314.231	315.377	277.895	285.033	300.909	223.512	224.514	115.389	113.622	144.920	125.678	106.914	104.837	103.929	140.122	134.010	117.895	194.840	195.484	39.247
124.000	304.538	305.684	274.338	293.318	312.488	314.278	315.186	277.776	285.177	300.957	223.631	224.490	115.460	113.670	145.016	125.583	106.579	104.693	104.001	140.146	134.177	117.800	194.792	195.198	39.202
125.000	304.538	306.090	274.076	293.246	312.488	314.111	315.496	277.704	284.986	301.291	223.440	225.159	115.078	113.503	144.920	125.630	106.675	104.765	104.073	140.002	134.201	117.704	194.887	194.338	40.555
126.000	304.729	305.923	274.290	293.389	312.440	314.278	315.329	277.991	284.819	301.554	223.798	226.400	114.744	113.360	144.801	125.559	106.579	104.741	103.953	140.098	134.249	117.442	194.720	192.786	41.728
127.000	304.944	306.400	275.078	293.389	312.249	314.278	315.281	277.585	284.747	301.387	224.037	227.880	114.577	113.097	144.467	125.320	106.532	104.574	103.953	140.026	134.177	117.275	194.649	191.259	41.007
128.000	305.612	306.448	275.317	293.509	312.583	314.660	315.735	277.848	284.699	301.864	223.894	229.193	114.314	112.834	144.037	125.344	106.508	104.717	104.049	140.026	134.225	117.203	194.601	190.471	39.472
