-----------------------------------------------------
BloodHound 307 VOC Analyser V2017.1
RoboScientific Ltd 
Espace North
Wisbech Road
Littleport
Cambridgeshire, UK
CB6 1RA 
-----------------------------------------------------
Date = 06/04/2022
Time = 11:43:40
Data is protected by RoboScientific Limited
-----------------------------------------------------
Name of the experiment = "32b_Day 24"
-----------------------------------------------------
Repeat No. = 4/4
-----------------------------------------------------
Experimental Time (in sec) and Flow Profile :
-----------------------------------------------------
Baseline = 2.00
Absorb = 4.00
Pause = 1.00
Desorb = 5.00
Flush = 20.00
Wait = 5.00
Higher Flow (V) = 4.00
Medium Flow (V) = 3.00
Low Flow (V) = 1.00
-----------------------------------------------------
Total Profile Time = 37 in sec
-----------------------------------------------------
Acquired data point per second = 4
--------------------------------------------------
Total data point stored  = 128
-----------------------------------------------------
Acquired sensor responses from 24 sensors
-----------------------------------------------------

Data Points	 Sen-1	 Sen-2	 Sen-3	 Sen-4	 Sen-5	 Sen-6	 Sen-7	 Sen-8	 Sen-9	 Sen-10	 Sen-11	 Sen-12	 Sen-13	 Sen-14	 Sen-15	 Sen-16	 Sen-17	 Sen-18	 Sen-19	 Sen-20	 Sen-21	 Sen-22	 Sen-23	 Sen-24	Humidity (%r.h.)
0.000	312.894	307.069	298.594	304.490	314.684	315.138	315.639	295.204	286.323	311.008	228.453	274.625	106.174	112.405	120.402	113.980	104.073	103.691	103.548	124.055	133.079	107.821	189.898	144.299	43.037
1.000	312.870	306.973	298.808	304.848	314.732	315.400	315.926	294.941	285.988	311.103	228.549	274.816	106.197	112.357	120.307	113.956	103.977	103.619	103.476	123.816	133.079	107.845	189.898	144.204	47.504
2.000	313.156	307.212	299.262	304.490	314.875	315.162	315.639	295.013	286.251	311.438	228.262	274.935	106.412	112.261	120.235	113.980	104.168	103.548	103.476	123.888	133.079	107.797	189.898	144.037	40.871
3.000	313.825	307.140	299.190	304.562	314.851	315.711	316.164	295.132	286.012	310.912	228.048	275.102	106.388	112.381	120.187	114.076	104.120	103.667	103.715	123.959	133.007	107.701	189.826	144.037	34.374
4.000	312.870	307.140	299.190	304.657	314.684	315.591	315.806	295.251	286.084	311.032	228.215	275.007	106.412	112.237	120.211	114.123	104.144	103.667	103.404	123.935	133.079	107.845	189.898	144.061	39.112
5.000	313.013	306.973	299.262	304.657	314.756	315.257	315.663	294.845	286.179	311.270	228.262	274.983	106.245	112.309	120.044	113.956	104.097	103.524	103.548	123.816	132.936	107.773	190.017	143.989	46.962
6.000	313.419	307.116	299.167	304.777	315.019	315.615	315.973	295.132	286.132	311.127	228.239	274.959	106.412	112.381	119.949	113.909	104.073	103.524	103.524	123.959	133.079	107.869	189.898	144.180	43.939
7.000	313.109	307.116	298.952	304.872	314.804	315.400	315.782	294.893	286.108	311.032	228.191	274.911	106.436	112.619	119.996	114.100	104.120	103.715	103.500	123.959	133.031	107.725	189.826	144.204	35.637
8.000	313.538	306.782	299.381	304.466	314.971	315.472	316.093	294.989	285.917	311.127	228.095	274.720	106.627	112.548	120.044	113.837	104.025	103.500	103.595	123.888	133.007	107.797	189.850	144.323	36.314
9.000	313.204	306.758	298.928	304.681	314.804	315.281	315.806	295.084	286.036	311.175	228.191	274.935	106.150	112.500	120.140	114.004	104.097	103.548	103.571	123.744	132.983	107.749	189.898	144.013	44.932
10.000	311.724	305.087	299.095	304.586	314.899	315.329	315.711	294.941	286.370	310.506	227.809	272.357	107.439	114.410	120.259	114.171	104.073	103.619	103.500	123.840	132.530	107.940	190.256	147.045	46.376
11.000	294.702	254.022	296.970	303.034	314.613	315.019	315.854	293.389	287.278	304.610	225.517	274.672	125.463	168.340	122.264	115.508	104.288	104.001	103.595	125.416	131.599	114.959	192.595	144.586	41.638
12.000	262.497	276.845	292.196	299.907	314.207	314.422	315.186	289.378	288.113	285.988	223.798	296.254	156.165	140.050	126.538	118.540	104.741	104.717	103.786	129.331	131.026	133.007	194.362	122.813	47.594
13.000	230.769	298.546	286.418	293.914	313.204	313.276	314.995	284.317	287.779	269.802	222.461	307.642	186.484	118.492	132.697	124.365	105.314	105.410	104.001	134.368	131.026	148.859	195.842	110.638	40.239
14.000	263.738	311.151	279.161	286.012	312.488	312.178	314.828	279.328	287.540	251.467	221.124	315.042	156.260	107.487	140.313	132.291	105.935	106.508	104.335	138.880	131.145	166.287	197.060	103.882	30.268
15.000	287.254	318.098	272.333	277.346	311.628	310.984	314.637	274.290	287.087	230.316	220.265	320.295	132.745	100.778	148.072	141.506	106.699	107.845	104.693	144.849	132.029	188.919	197.967	98.844	39.157
16.000	302.055	322.945	264.287	267.845	310.912	309.241	313.682	267.964	286.156	236.165	219.763	323.279	116.606	96.051	156.069	151.557	107.773	109.420	105.243	151.080	132.602	181.685	198.540	96.457	52.647
17.000	312.464	325.475	255.383	257.889	309.695	307.188	312.989	261.256	284.986	257.197	219.381	325.332	105.887	92.876	164.974	160.557	108.728	111.426	106.150	157.478	133.676	160.128	199.113	94.237	46.466
18.000	319.435	327.576	248.006	247.719	308.310	304.538	312.178	253.855	283.983	273.216	219.023	327.218	99.680	91.109	173.449	170.274	110.017	113.837	106.890	164.950	134.774	145.135	199.686	92.804	31.171
19.000	323.159	329.343	243.350	238.433	307.116	301.482	310.363	247.003	282.813	284.771	218.618	328.077	95.192	89.605	179.561	180.110	111.497	116.750	108.370	172.136	136.039	133.556	199.710	91.515	32.208
20.000	326.358	330.321	241.846	229.862	305.421	298.021	308.597	239.937	281.858	292.673	218.116	328.984	92.279	87.863	178.630	189.396	113.121	120.450	110.351	180.229	137.591	125.630	200.545	90.298	48.767
21.000	328.364	331.802	243.828	222.366	303.416	294.082	306.233	232.918	280.474	298.928	218.355	330.011	90.465	87.791	174.619	196.535	114.959	124.341	112.667	186.866	138.785	119.161	200.259	89.510	53.144
22.000	329.748	332.852	247.839	222.628	301.291	289.569	303.440	227.069	278.564	303.655	218.259	330.083	88.483	86.764	167.337	195.604	117.322	128.424	115.269	193.073	140.050	114.505	200.330	89.271	37.713
23.000	331.563	332.995	252.064	228.573	298.713	285.702	300.862	223.583	277.298	307.188	218.450	329.557	87.481	86.406	162.396	189.683	119.734	133.198	118.659	196.176	141.697	110.638	200.211	89.343	28.373
24.000	332.088	333.926	255.956	235.997	296.135	280.044	296.373	225.087	275.460	310.077	217.997	330.799	86.764	86.359	156.976	182.449	122.455	138.522	122.431	193.574	143.297	107.821	200.641	87.910	41.728
25.000	332.446	333.711	259.847	240.868	293.389	275.245	292.196	227.546	273.956	312.321	218.140	331.658	86.406	86.502	152.154	177.054	125.630	143.034	126.872	190.900	144.992	105.768	200.283	88.101	54.542
26.000	333.067	334.428	262.091	241.441	292.076	273.455	289.593	227.928	273.741	312.225	218.450	331.682	87.003	85.213	150.172	177.054	127.111	145.111	129.713	190.829	145.398	106.174	200.927	89.582	43.578
27.000	332.613	334.284	263.523	240.844	291.981	273.694	288.543	226.878	274.004	312.369	218.546	331.634	86.359	86.263	149.003	177.818	127.230	144.705	130.644	191.593	145.445	106.412	200.712	89.080	28.869
28.000	332.661	334.738	264.287	239.722	291.981	274.290	288.065	226.663	273.455	311.533	218.140	330.823	86.263	86.072	147.475	178.749	127.206	144.299	130.620	192.023	144.944	106.532	200.521	88.078	34.961
29.000	333.401	334.189	264.789	238.791	292.410	274.863	288.304	225.899	274.147	311.676	218.236	331.945	86.048	85.475	147.785	180.014	126.824	144.061	130.906	192.834	144.610	106.818	200.689	88.698	52.241
30.000	333.091	334.452	266.818	242.061	291.217	272.786	286.681	228.119	273.670	313.133	218.713	332.255	85.165	85.547	146.663	176.075	127.779	145.565	132.100	190.447	144.920	105.672	200.736	88.913	49.850
31.000	332.518	334.428	268.465	246.884	288.376	268.800	283.601	229.002	272.882	312.560	218.618	331.730	86.836	86.263	144.085	171.563	130.286	149.623	135.442	189.826	145.780	105.648	200.545	88.698	32.930
32.000	330.990	334.380	269.205	247.982	287.779	268.274	283.004	225.374	275.460	308.764	218.522	330.226	89.104	85.810	143.536	170.990	131.575	150.244	136.278	192.954	143.249	110.256	200.450	90.656	30.358
33.000	328.388	333.329	270.017	245.762	288.304	271.020	285.081	228.764	278.062	299.572	218.761	328.316	91.396	87.242	142.581	172.590	130.548	147.522	133.580	191.402	140.933	119.041	199.567	91.587	45.789
34.000	324.950	332.375	270.542	240.868	290.381	274.911	288.901	237.310	280.808	287.397	219.453	324.735	94.810	86.979	142.652	177.388	128.591	143.512	130.429	182.616	138.116	131.814	198.826	95.144	53.820
35.000	320.271	331.945	269.277	234.159	292.434	279.161	292.267	245.571	282.765	272.619	220.790	320.199	100.563	88.125	144.180	184.359	126.323	139.716	126.657	173.950	136.087	148.048	197.776	99.489	40.194
36.000	313.204	330.369	267.606	226.185	295.013	282.837	295.514	252.279	284.317	252.398	221.649	315.711	106.675	89.582	145.971	192.595	123.577	135.657	123.052	166.526	134.726	168.077	197.036	104.120	29.636
37.000	303.010	328.722	265.911	219.549	297.209	286.943	298.880	258.510	285.010	231.008	222.199	309.695	115.962	90.918	148.048	199.208	121.071	131.575	120.163	160.533	133.795	187.152	196.200	109.611	38.164
38.000	288.328	326.549	262.807	227.475	299.596	290.859	301.817	263.261	285.606	229.552	222.795	303.798	130.286	93.545	150.817	191.641	119.209	128.328	117.490	155.830	133.270	190.137	195.580	115.484	50.752
39.000	268.489	323.565	259.346	236.928	301.745	294.392	304.228	267.367	285.893	246.597	223.130	297.472	151.796	96.218	154.207	181.805	117.299	124.604	114.696	151.653	132.816	173.377	195.031	122.551	45.609
40.000	244.568	319.936	255.478	245.786	302.962	297.281	306.042	270.017	286.418	259.107	223.870	290.715	176.744	99.728	159.125	172.542	115.532	121.214	112.930	148.310	132.530	159.626	194.720	129.498	34.509
41.000	223.798	315.878	250.942	254.237	304.681	300.026	307.928	272.763	286.227	268.943	224.108	283.935	195.747	103.595	164.138	164.162	114.004	118.588	111.235	145.374	132.458	149.337	194.362	135.419	34.870
42.000	231.270	310.650	246.167	261.685	306.185	302.891	309.528	275.603	286.609	277.012	224.467	276.678	188.537	108.537	169.128	156.905	112.715	115.866	109.802	143.177	132.363	142.032	193.956	141.578	44.977
43.000	246.311	304.299	240.987	267.940	307.570	305.493	310.530	277.322	286.418	282.694	224.801	269.850	173.998	115.317	175.669	150.674	111.688	113.479	108.489	140.933	132.411	136.660	193.622	148.597	46.556
44.000	257.579	296.182	236.785	273.335	307.928	306.782	311.414	278.755	286.681	286.776	225.111	263.882	161.512	123.386	181.423	145.207	110.519	111.879	107.701	139.238	132.411	132.434	193.431	154.756	40.194
45.000	267.463	286.012	233.849	277.680	308.979	308.382	312.297	280.426	286.299	289.808	225.111	257.913	151.796	133.795	185.672	140.527	109.540	110.184	107.009	138.092	132.315	129.259	193.121	160.724	36.179
46.000	275.341	276.176	233.180	281.357	309.957	309.766	312.703	281.620	286.323	291.933	225.565	251.706	143.989	142.175	187.892	137.042	108.871	109.015	106.460	136.755	132.339	126.729	192.906	166.096	40.104
47.000	281.954	266.651	235.663	284.293	310.650	310.483	313.204	282.813	286.585	294.320	225.660	245.690	137.328	151.772	185.672	134.273	108.179	107.869	105.935	135.753	132.530	124.962	192.691	171.993	44.661
48.000	287.516	257.555	239.125	287.015	311.390	311.843	313.777	283.673	286.347	295.800	225.851	241.202	132.697	162.085	181.160	131.623	107.630	107.439	105.577	134.798	132.649	123.148	192.428	177.627	42.135
49.000	290.859	245.308	243.756	288.614	311.175	312.178	313.992	284.413	286.418	297.663	226.400	235.830	128.257	173.210	175.836	129.235	107.129	106.651	105.338	133.938	132.578	121.572	192.190	182.425	39.247
50.000	293.676	232.774	248.841	291.145	311.891	312.536	313.849	285.296	286.084	298.450	226.257	230.578	125.630	185.099	170.131	127.325	106.651	106.006	104.980	133.031	132.649	120.283	192.023	187.152	39.157
51.000	296.135	223.559	253.783	293.103	312.512	313.443	314.374	286.036	286.323	300.145	226.114	227.212	123.219	196.558	165.404	125.869	106.508	105.720	104.765	132.434	132.816	119.376	192.046	191.473	41.864
52.000	298.116	234.159	258.176	294.392	312.369	313.538	314.780	286.943	286.179	300.336	226.209	223.750	121.620	186.555	160.677	124.461	106.150	105.314	104.646	131.838	132.840	118.349	191.855	195.054	41.503
53.000	299.859	244.210	262.163	295.227	313.037	313.944	314.804	287.349	286.179	301.411	226.735	221.458	120.187	175.192	156.905	123.386	105.744	105.147	104.550	131.241	132.769	117.585	191.832	197.776	40.149
54.000	300.384	253.974	265.362	296.254	313.085	313.896	314.684	287.851	286.370	302.079	226.544	220.050	118.659	165.093	153.586	122.336	105.648	104.980	104.407	130.525	132.792	116.917	191.832	199.280	40.014
55.000	302.007	262.210	268.083	297.424	313.467	314.278	315.114	288.686	285.988	302.342	226.878	219.978	117.800	157.191	150.984	121.739	105.553	104.861	104.240	130.023	132.769	116.177	191.617	200.187	40.375
56.000	302.652	268.465	270.781	297.925	313.300	314.111	315.066	289.116	286.179	303.249	226.687	220.289	116.773	150.936	148.453	121.118	105.505	104.646	104.120	129.402	132.864	115.818	191.593	199.638	40.285
57.000	303.034	273.956	273.383	298.164	313.586	314.565	315.066	289.689	286.132	303.440	226.758	221.458	115.914	146.090	146.329	120.402	105.266	104.598	104.097	129.020	132.721	115.269	191.521	198.230	40.510
58.000	304.228	277.466	274.625	298.761	313.825	314.446	315.281	290.286	286.275	303.989	226.782	223.297	115.460	141.745	144.156	119.877	105.243	104.502	104.216	128.591	132.912	114.983	191.545	196.535	41.322
59.000	304.777	280.951	276.367	299.381	313.634	314.493	315.114	290.524	286.036	304.466	227.164	225.087	114.553	138.427	142.533	119.423	105.147	104.383	104.025	128.066	132.745	114.482	191.354	194.577	40.826
60.000	305.541	283.864	278.373	299.429	313.682	314.708	315.520	291.169	286.060	304.753	226.782	226.663	114.219	135.777	141.029	119.304	105.075	104.311	104.025	127.707	132.888	114.386	191.330	192.930	39.427
61.000	306.018	285.797	279.280	299.740	314.064	314.756	315.281	292.124	286.490	305.207	226.735	228.262	113.718	133.533	139.668	118.707	104.956	104.264	104.025	127.111	132.983	113.813	191.330	190.996	39.518
62.000	306.400	287.827	280.665	300.289	314.087	314.684	315.233	291.981	286.156	305.445	227.140	230.077	113.264	131.479	138.379	118.516	104.861	104.311	103.906	126.705	132.960	113.622	191.211	189.277	41.909
63.000	306.687	289.522	282.025	300.360	314.231	314.947	315.472	292.339	286.132	305.708	226.926	231.509	113.145	129.570	137.161	118.134	104.908	104.288	104.120	126.394	132.936	113.240	191.259	187.654	42.315
64.000	306.376	290.978	282.789	301.315	314.302	315.042	315.329	292.530	286.084	305.708	226.926	233.324	112.715	128.352	136.087	118.015	104.908	104.144	103.929	126.347	132.983	113.097	191.211	186.245	39.788
65.000	307.116	292.482	284.126	301.196	314.207	314.756	315.257	292.673	286.418	306.185	227.355	234.995	112.166	127.373	135.299	117.800	104.765	104.168	103.929	126.132	133.103	112.978	191.163	184.717	39.066
66.000	307.570	293.150	284.604	301.172	314.469	315.066	315.424	293.103	286.060	306.424	226.973	235.902	112.190	125.941	134.225	117.609	104.813	104.120	103.762	125.989	132.912	112.619	191.139	183.380	41.413
67.000	307.856	294.511	285.797	301.267	314.159	315.019	315.353	293.103	286.108	306.520	227.451	237.358	111.497	125.201	133.795	117.346	104.789	103.834	103.810	125.941	133.103	112.596	191.044	182.234	43.533
68.000	307.594	295.466	286.156	301.482	314.326	315.019	315.210	292.959	286.060	306.424	227.498	237.979	111.402	124.413	132.960	117.179	104.622	104.073	103.882	125.798	132.816	112.214	190.948	181.017	40.871
69.000	308.167	295.800	286.752	301.840	314.326	315.042	315.257	292.959	286.227	306.734	227.737	239.340	111.163	123.721	132.458	117.060	104.574	104.025	103.953	125.630	133.007	112.142	191.044	179.990	38.660
70.000	308.286	296.517	287.516	301.912	314.255	314.828	315.329	293.150	285.774	306.806	227.618	240.342	110.757	123.028	131.694	116.893	104.646	104.049	103.858	125.630	132.960	111.903	190.829	178.868	39.608
71.000	308.692	297.137	287.827	302.055	314.231	314.875	315.281	293.222	285.988	307.045	227.570	241.345	110.805	122.360	131.217	116.750	104.598	103.929	103.858	125.368	132.983	111.760	191.020	177.842	43.894
72.000	308.692	297.686	288.543	301.817	314.350	315.090	315.544	293.532	286.012	307.069	227.618	242.634	110.590	121.739	130.620	116.582	104.670	103.906	103.762	125.439	132.960	111.664	190.900	176.911	42.631
73.000	309.098	298.379	289.116	302.055	314.159	315.186	315.926	293.628	286.299	307.498	227.546	243.589	110.519	121.262	130.310	116.630	104.598	103.906	103.834	125.463	133.031	111.545	190.805	176.051	39.066
74.000	309.456	298.785	289.378	302.198	314.350	315.472	315.687	293.532	286.012	307.140	227.379	244.091	110.113	120.808	129.904	116.391	104.502	103.929	103.786	125.320	132.960	111.426	190.805	175.048	38.615
75.000	309.408	299.262	289.832	302.461	314.684	315.400	315.663	293.509	285.869	307.451	227.355	244.950	110.137	120.354	129.283	116.200	104.526	103.953	103.834	125.248	132.912	111.283	190.733	174.332	42.856
76.000	309.074	299.549	290.620	302.389	314.231	315.114	315.472	293.509	285.869	307.761	227.522	245.809	110.041	119.996	129.020	116.200	104.455	103.906	103.739	125.105	132.888	111.020	190.877	173.377	44.255
77.000	309.695	300.289	290.906	302.676	314.326	315.042	315.663	293.771	285.988	308.095	227.594	246.812	109.683	119.471	128.495	116.153	104.550	103.953	103.858	125.225	132.983	110.948	190.877	172.709	39.969
78.000	309.528	300.527	291.073	302.604	314.255	314.995	315.615	293.914	286.036	307.928	227.666	247.695	109.707	119.376	128.257	116.033	104.335	103.906	103.715	125.129	133.079	111.068	190.853	171.849	37.803
79.000	309.933	300.718	291.097	302.867	314.493	315.114	315.496	293.962	286.299	308.095	227.355	248.412	109.516	118.803	127.970	115.914	104.526	103.906	103.715	125.105	133.127	110.757	190.829	171.181	40.916
80.000	309.933	300.981	291.670	302.939	314.684	315.162	315.711	293.891	285.845	307.976	227.379	248.746	109.540	118.659	127.755	116.057	104.455	103.882	103.619	125.034	133.079	110.805	190.781	170.322	44.255
81.000	309.981	301.267	292.028	303.249	314.589	315.138	315.424	293.891	286.012	308.262	227.594	249.247	109.420	118.349	127.421	115.747	104.502	103.762	103.858	124.890	133.031	110.781	190.805	169.725	41.593
82.000	310.554	301.387	292.148	302.819	314.422	315.591	315.878	294.010	285.965	308.143	227.522	250.178	109.444	118.110	126.991	115.842	104.479	103.834	103.834	125.057	133.055	110.590	190.757	169.128	37.623
83.000	310.339	301.626	292.745	303.034	314.517	315.377	315.544	293.819	286.227	308.406	227.689	250.823	109.253	117.895	126.729	115.818	104.502	103.810	103.643	124.867	132.936	110.399	190.757	168.531	39.157
84.000	310.602	301.721	292.363	302.962	314.326	315.568	315.878	293.867	286.179	308.573	227.618	251.276	109.277	117.633	126.705	115.651	104.383	103.762	103.762	124.914	132.888	110.471	190.829	167.672	44.120
85.000	310.411	301.888	293.198	303.201	314.469	315.233	315.424	294.082	285.988	308.859	227.594	252.327	108.895	117.561	126.418	115.532	104.407	103.953	103.810	124.867	133.031	110.113	190.781	167.099	43.578
86.000	310.530	302.222	293.413	303.368	314.660	315.162	315.472	294.058	286.012	308.597	227.498	252.733	109.158	117.155	126.180	115.627	104.359	103.906	103.810	124.890	132.960	110.280	190.638	166.526	38.435
87.000	310.602	302.485	293.103	303.058	314.326	315.210	315.759	294.129	286.036	309.026	227.761	253.544	108.919	117.155	126.108	115.699	104.359	103.786	103.643	124.747	133.007	110.280	190.757	166.072	37.623
88.000	310.459	302.485	293.771	303.344	314.923	315.305	315.568	294.010	285.965	308.668	227.809	253.855	109.038	117.012	125.893	115.413	104.383	103.786	103.691	124.914	132.983	110.137	190.542	165.213	43.127
89.000	311.127	302.724	293.604	303.607	314.780	315.591	315.950	294.535	286.179	308.668	227.666	254.428	108.895	116.869	125.678	115.413	104.288	103.882	103.858	124.795	133.007	110.065	190.614	164.735	44.616
90.000	310.984	302.939	293.962	303.344	314.469	314.971	315.520	294.272	286.012	308.883	227.689	255.072	108.728	116.582	125.487	115.317	104.311	103.786	103.667	124.723	133.079	109.922	190.566	164.425	39.924
91.000	311.079	302.700	294.058	303.846	314.875	315.162	315.782	294.344	285.893	308.979	227.952	254.905	108.847	116.487	125.225	115.389	104.359	103.953	103.691	124.628	133.007	109.946	190.733	164.091	36.720
92.000	310.960	303.153	293.795	303.822	314.517	315.568	315.663	294.249	286.036	308.907	227.713	255.407	108.561	116.368	125.081	115.317	104.407	103.643	103.667	124.699	133.007	109.969	190.590	163.852	40.826
93.000	310.817	303.273	294.344	303.344	314.446	315.233	315.472	294.082	286.179	309.098	227.713	256.147	108.609	116.511	125.034	115.246	104.335	103.762	103.786	124.723	132.983	109.946	190.686	163.446	45.157
94.000	311.175	302.915	294.440	303.607	314.804	315.448	315.830	294.225	286.108	309.170	227.976	256.218	108.322	116.224	125.010	115.269	104.359	103.715	103.691	124.580	132.912	109.874	190.662	162.873	41.909
95.000	310.865	303.177	294.392	303.297	314.684	315.472	315.520	294.392	285.917	309.050	227.522	256.911	108.513	116.224	124.914	115.293	104.359	103.810	103.691	124.652	133.031	109.659	190.495	162.563	36.991
96.000	310.984	303.655	294.798	303.344	314.541	315.019	315.615	294.249	286.179	309.313	227.928	257.364	108.489	115.986	124.628	115.102	104.311	103.762	103.739	124.628	132.864	109.659	190.495	161.918	38.299
97.000	311.270	303.846	294.654	303.321	314.278	315.162	315.878	294.272	285.821	309.575	227.904	257.913	108.274	115.795	124.461	115.078	104.240	103.762	103.667	124.508	132.983	109.588	190.495	161.321	44.345
98.000	310.888	303.965	294.917	303.392	314.255	315.210	315.663	294.105	286.179	309.528	228.000	259.035	108.227	115.556	124.437	115.055	104.216	103.739	103.715	124.676	133.055	109.635	190.375	160.605	44.481
99.000	311.294	304.084	294.965	303.655	314.493	315.377	315.735	294.320	286.084	309.504	227.785	259.035	108.298	115.460	124.198	115.055	104.216	103.810	103.691	124.508	133.079	109.468	190.351	159.984	39.202
100.000	311.414	304.084	295.204	303.870	314.589	315.400	315.782	294.296	285.774	309.337	227.761	259.537	108.203	115.341	124.103	115.055	104.288	103.810	103.715	124.532	132.983	109.492	190.351	159.483	36.495
101.000	311.390	304.490	295.705	303.535	314.446	315.233	315.735	294.559	285.893	309.313	228.024	260.229	108.155	115.102	123.935	114.983	104.359	103.715	103.739	124.461	133.055	109.420	190.304	158.910	41.683
102.000	311.581	304.657	295.347	303.726	314.637	315.353	315.520	294.726	286.012	309.552	228.048	260.706	107.821	115.055	123.959	114.935	104.168	103.667	103.500	124.461	133.055	109.444	190.351	158.409	45.609
103.000	311.700	304.610	295.633	303.559	314.637	315.329	315.902	294.511	285.821	309.933	227.928	261.303	107.821	114.959	123.744	114.935	104.264	103.739	103.548	124.365	133.007	109.349	190.423	157.860	41.548
104.000	311.724	304.657	295.944	303.703	314.732	315.305	315.735	294.535	285.917	309.408	228.095	262.043	107.654	114.768	123.601	114.959	104.335	103.834	103.739	124.508	133.055	109.253	190.256	157.215	35.998
105.000	311.700	304.801	295.848	304.037	314.660	315.329	315.759	294.416	286.012	309.790	227.833	262.449	107.845	114.625	123.458	114.744	104.288	103.691	103.691	124.413	133.031	109.325	190.375	156.905	38.886
106.000	312.058	304.848	295.944	304.013	314.780	315.329	315.472	294.583	286.132	309.886	227.833	262.831	107.821	114.386	123.386	114.840	104.383	103.834	103.643	124.317	132.983	109.015	190.495	156.356	45.338
107.000	311.414	304.968	296.063	303.798	314.637	315.544	315.663	294.559	286.012	309.814	228.143	263.070	107.654	114.458	123.267	114.887	104.192	103.571	103.595	124.341	133.079	109.158	190.328	156.093	43.623
108.000	312.225	304.944	296.445	304.228	314.756	315.520	315.926	294.726	286.036	309.647	227.928	263.523	107.869	114.291	123.148	114.768	104.288	103.691	103.643	124.341	133.031	109.110	190.399	155.616	37.352
109.000	312.392	304.920	295.753	303.703	314.899	315.424	316.117	294.845	285.893	309.623	228.000	263.667	107.773	114.195	123.004	114.792	104.335	103.786	103.667	124.270	133.007	109.015	190.304	155.281	36.856
110.000	311.867	305.207	296.326	303.822	314.851	315.400	315.663	294.702	285.988	309.886	227.952	264.407	107.487	114.028	122.813	114.720	104.288	103.691	103.548	124.317	132.912	108.871	190.375	154.971	43.714
111.000	311.843	305.708	296.636	304.132	314.708	315.353	315.782	294.607	286.012	309.862	228.024	264.574	107.487	114.076	122.670	114.673	104.216	103.786	103.667	124.341	132.912	108.895	190.256	154.589	45.834
112.000	312.249	305.636	297.042	304.204	314.613	315.305	315.639	294.631	285.750	309.886	227.761	264.860	107.654	113.956	122.694	114.649	104.097	103.762	103.691	124.389	132.936	108.824	190.304	154.279	40.285
113.000	312.130	305.923	296.970	303.965	314.541	315.114	315.568	294.583	286.179	310.315	227.880	264.884	107.678	114.004	122.670	114.577	104.120	103.786	103.595	124.317	133.127	108.847	190.232	153.801	35.502
114.000	311.700	305.517	296.994	304.419	314.660	315.186	315.544	294.463	285.726	309.814	228.048	265.600	107.678	113.885	122.766	114.625	104.168	103.667	103.715	124.198	132.936	108.752	190.256	153.730	40.014
115.000	312.082	305.517	296.779	304.204	315.066	315.281	315.544	294.654	286.036	309.957	227.761	265.624	107.463	113.861	122.455	114.553	104.168	103.906	103.667	124.341	133.031	108.824	190.328	153.467	46.060
116.000	311.915	305.994	296.922	304.323	314.732	315.424	315.472	294.559	286.132	310.053	228.143	265.935	107.487	113.837	122.264	114.696	104.359	103.715	103.619	124.126	132.840	108.776	190.208	153.109	42.947
117.000	311.987	305.827	297.018	304.132	314.589	315.162	315.591	294.607	285.917	310.005	227.737	266.293	107.415	113.765	122.264	114.625	104.288	103.667	103.619	124.294	132.960	108.776	190.232	152.775	35.818
118.000	311.772	305.899	296.851	304.037	314.851	315.281	315.520	294.654	285.988	310.077	228.000	266.579	107.343	113.622	122.145	114.577	104.120	103.739	103.595	124.150	132.983	108.656	190.184	152.488	37.803
119.000	311.628	305.684	297.304	304.013	314.637	315.472	315.520	294.511	285.726	310.292	228.095	267.033	107.415	113.479	122.169	114.482	104.192	103.715	103.667	124.174	133.055	108.728	190.232	152.225	45.022
120.000	311.867	305.923	297.113	304.132	314.589	314.971	315.520	294.798	286.299	310.459	228.119	267.415	107.248	113.598	122.073	114.458	104.240	103.739	103.667	124.126	133.031	108.633	190.232	152.082	44.932
121.000	312.058	306.114	297.734	304.371	314.637	315.257	315.472	294.917	286.132	310.411	227.570	267.105	107.511	113.503	122.121	114.601	104.335	103.810	103.595	124.079	133.007	108.561	190.328	151.891	37.984
122.000	312.273	306.185	297.376	304.180	314.660	315.353	315.639	294.798	286.203	310.363	228.191	267.916	107.081	113.383	121.930	114.505	104.120	103.643	103.643	124.126	133.079	108.585	190.280	151.462	36.043
123.000	312.034	306.257	297.472	304.084	314.828	315.377	315.687	294.726	285.893	310.268	227.857	268.131	107.296	113.336	121.787	114.386	104.311	103.929	103.667	124.222	133.007	108.609	190.232	151.247	43.308
124.000	312.225	306.520	297.543	304.347	314.756	315.233	315.424	294.726	286.179	310.363	228.119	268.083	107.296	113.383	121.739	114.505	104.216	103.691	103.595	124.007	133.031	108.394	190.184	151.008	46.376
125.000	312.249	306.066	297.663	304.323	314.684	315.162	315.735	294.869	285.750	310.148	227.809	268.609	107.081	113.312	121.715	114.291	104.097	103.595	103.739	124.294	133.031	108.370	190.065	150.721	40.194
126.000	312.154	306.352	297.615	304.514	314.851	315.496	315.615	294.869	286.227	310.339	227.976	268.871	107.152	113.479	121.763	114.434	104.216	103.691	103.643	124.079	133.031	108.322	190.137	150.650	35.006
127.000	312.106	306.090	297.424	304.490	314.565	315.353	315.591	294.941	285.988	310.483	227.857	268.704	107.057	113.431	121.620	114.410	104.097	103.571	103.595	124.007	133.079	108.346	190.065	150.530	39.653
128.000	312.058	306.400	297.758	304.681	314.756	315.210	315.544	294.583	285.917	310.602	228.024	268.800	107.081	113.312	121.644	114.386	104.216	103.715	103.619	124.150	133.103	108.537	190.184	150.172	46.421
