-----------------------------------------------------
BloodHound 307 VOC Analyser V2017.1
RoboScientific Ltd 
Espace North
Wisbech Road
Littleport
Cambridgeshire, UK
CB6 1RA 
-----------------------------------------------------
Date = 06/04/2022
Time = 12:31:37
Data is protected by RoboScientific Limited
-----------------------------------------------------
Name of the experiment = "32b_Day 41"
-----------------------------------------------------
Repeat No. = 2/4
-----------------------------------------------------
Experimental Time (in sec) and Flow Profile :
-----------------------------------------------------
Baseline = 2.00
Absorb = 4.00
Pause = 1.00
Desorb = 5.00
Flush = 20.00
Wait = 5.00
Higher Flow (V) = 4.00
Medium Flow (V) = 3.00
Low Flow (V) = 1.00
-----------------------------------------------------
Total Profile Time = 37 in sec
-----------------------------------------------------
Acquired data point per second = 4
--------------------------------------------------
Total data point stored  = 128
-----------------------------------------------------
Acquired sensor responses from 24 sensors
-----------------------------------------------------

Data Points	 Sen-1	 Sen-2	 Sen-3	 Sen-4	 Sen-5	 Sen-6	 Sen-7	 Sen-8	 Sen-9	 Sen-10	 Sen-11	 Sen-12	 Sen-13	 Sen-14	 Sen-15	 Sen-16	 Sen-17	 Sen-18	 Sen-19	 Sen-20	 Sen-21	 Sen-22	 Sen-23	 Sen-24	Humidity (%r.h.)
0.000	313.156	308.024	292.219	305.374	314.541	315.424	315.854	297.424	286.323	311.772	229.934	277.848	106.365	111.474	126.920	113.216	104.073	103.595	103.500	121.357	132.864	107.487	188.561	141.459	34.374
1.000	313.180	308.119	292.792	305.517	314.589	315.424	315.687	297.495	286.538	311.414	230.005	277.943	106.245	111.521	126.824	113.288	103.977	103.571	103.476	121.453	132.792	107.487	188.489	141.315	41.413
2.000	313.371	308.215	292.458	305.493	314.708	315.591	315.950	297.615	286.084	311.294	229.862	277.824	106.030	111.474	126.920	113.097	104.001	103.524	103.643	121.524	132.745	107.415	188.513	141.196	47.774
3.000	313.252	307.952	292.291	305.517	314.804	315.472	315.520	297.877	286.609	311.652	229.862	278.086	106.221	111.521	126.753	113.240	104.049	103.524	103.619	121.357	132.840	107.415	188.418	141.029	43.488
4.000	313.467	307.761	292.506	305.803	315.019	315.472	315.854	297.543	286.442	311.676	229.647	277.943	106.388	111.330	126.585	113.216	104.192	103.571	103.524	121.285	132.912	107.391	188.465	141.005	35.457
5.000	313.276	308.095	293.031	305.493	314.804	315.997	315.687	297.615	286.514	311.366	229.671	278.349	106.174	111.354	126.514	113.097	104.168	103.643	103.619	121.429	132.816	107.439	188.418	140.909	35.592
6.000	313.610	308.167	292.768	305.732	314.947	315.305	315.806	297.734	286.179	311.318	229.934	278.444	106.245	111.354	126.562	113.121	104.073	103.524	103.500	121.309	132.673	107.343	188.513	140.886	43.849
7.000	313.324	308.310	293.127	305.493	314.828	315.472	315.663	297.495	286.275	311.366	229.695	278.516	106.078	111.450	126.394	113.145	104.049	103.619	103.571	121.405	132.816	107.463	188.394	140.695	47.684
8.000	313.347	308.286	292.601	305.326	314.780	315.544	315.806	297.591	286.012	311.557	229.719	278.755	106.221	111.354	126.514	113.336	103.977	103.428	103.428	121.333	132.816	107.439	188.465	140.647	41.503
9.000	313.443	308.358	292.912	305.612	314.637	315.281	315.544	297.519	286.275	311.581	229.647	278.850	106.150	111.306	126.323	113.264	104.073	103.333	103.476	121.381	132.697	107.343	188.465	140.384	34.194
10.000	311.700	306.138	292.864	305.445	314.732	315.377	315.878	297.281	286.896	310.984	229.241	274.123	107.200	112.930	126.538	113.192	104.120	103.548	103.643	121.333	132.482	107.892	188.847	143.392	37.171
11.000	295.132	252.327	289.331	303.750	314.541	315.424	315.639	295.753	287.445	304.228	227.116	279.662	123.530	164.282	129.713	114.792	104.455	103.667	103.595	122.885	131.288	113.765	190.996	139.883	39.472
12.000	263.834	279.686	281.405	300.814	314.135	314.828	315.377	291.575	288.113	286.323	225.517	301.411	155.830	139.668	137.878	117.824	104.670	104.097	103.619	127.158	130.883	133.151	192.763	118.970	34.464
13.000	236.141	302.198	270.590	295.347	313.562	314.135	315.353	286.561	288.209	270.136	223.750	312.178	183.118	116.248	148.740	123.506	105.243	105.052	104.097	132.387	130.620	150.029	194.290	107.869	44.165
14.000	268.227	313.180	259.179	287.039	312.655	313.204	314.899	281.429	287.874	250.536	222.724	319.029	150.316	104.884	159.626	131.718	106.054	105.625	104.192	136.970	131.050	167.409	195.484	101.017	52.422
15.000	291.002	320.295	247.886	277.943	311.867	311.987	314.398	275.866	287.158	228.095	221.626	323.279	127.325	98.152	171.420	140.504	106.818	106.484	104.550	142.819	131.623	190.471	196.630	96.863	42.586
16.000	306.114	324.807	239.602	267.964	310.888	310.506	313.729	269.396	286.418	240.414	220.790	326.048	113.479	94.189	181.781	150.363	107.940	108.155	105.314	149.217	132.434	179.489	197.346	93.473	29.772
17.000	315.186	327.743	237.525	258.462	309.528	308.788	312.989	262.903	285.320	261.041	220.432	327.600	103.834	91.539	184.264	160.844	109.134	110.256	106.150	156.570	133.533	157.478	197.919	91.802	33.111
18.000	320.605	329.414	243.064	248.149	308.215	306.042	311.557	254.714	284.174	276.344	220.145	330.035	97.149	89.534	174.046	170.847	110.566	112.619	107.272	164.234	134.798	142.199	198.373	90.799	48.677
19.000	324.735	331.396	250.727	238.337	306.400	303.177	310.029	247.409	282.933	286.800	219.692	330.823	93.664	88.006	163.040	180.587	112.333	115.317	108.847	171.921	136.039	131.097	198.659	90.727	53.820
20.000	328.197	332.160	257.794	228.907	304.204	299.501	307.785	239.650	281.357	295.036	219.501	331.802	90.417	87.218	153.348	189.468	114.434	118.970	111.044	179.823	137.209	122.742	198.731	89.128	41.007
21.000	329.152	333.138	264.120	221.649	302.007	295.609	305.159	232.631	280.116	301.244	219.644	331.921	89.486	85.905	146.305	197.776	116.773	122.670	113.503	187.081	138.641	117.251	198.994	88.674	28.509
22.000	331.802	333.234	269.945	223.368	299.286	291.408	302.103	226.973	278.683	305.732	219.692	332.112	87.863	86.001	140.599	195.007	119.423	127.158	116.726	193.312	140.098	112.667	199.256	88.030	34.825
23.000	331.587	334.523	274.004	230.483	296.015	286.776	298.450	223.655	276.988	309.504	218.928	332.637	86.526	85.475	135.920	187.797	122.742	132.100	120.760	195.604	141.793	109.206	199.376	87.982	50.843
24.000	332.804	333.855	278.062	237.430	292.625	281.476	293.795	226.066	275.484	311.700	219.358	332.804	85.857	85.428	132.005	180.301	126.084	136.684	124.938	192.357	143.440	106.293	199.399	87.648	52.331
25.000	333.735	334.690	281.190	242.419	288.973	276.630	289.235	229.480	273.646	314.040	219.334	333.377	85.237	84.568	128.591	175.550	130.119	141.673	129.784	189.420	145.135	104.717	199.471	87.194	36.856
26.000	332.876	334.690	282.431	243.327	286.466	274.887	285.988	229.193	273.359	314.422	219.214	333.497	85.284	84.998	127.660	175.574	132.625	143.559	133.007	189.611	145.875	104.097	199.638	87.409	28.238
27.000	334.022	334.714	283.267	242.157	286.275	275.365	285.750	229.002	273.168	314.135	219.501	333.043	85.881	84.783	127.373	176.171	133.007	143.225	133.843	190.065	145.613	105.123	199.352	87.791	38.525
28.000	334.141	334.786	283.553	241.011	286.132	275.938	285.129	227.522	273.503	313.801	219.429	333.497	85.284	85.451	127.039	177.364	133.174	142.819	133.915	190.686	145.326	104.861	199.638	87.576	54.091
29.000	333.449	335.335	283.864	239.698	286.418	275.914	284.890	226.997	273.550	313.849	219.596	333.592	85.356	85.571	126.848	178.558	133.055	142.795	134.249	191.617	145.016	104.932	199.256	87.624	49.038
30.000	334.261	335.979	285.368	244.067	284.675	273.813	283.338	230.077	273.288	314.422	219.334	333.043	84.711	83.995	126.180	174.261	134.153	144.443	135.729	188.776	145.565	103.548	199.686	88.054	32.434
31.000	334.237	335.383	286.705	248.603	282.121	270.304	279.996	230.674	272.476	314.804	219.763	333.043	85.666	85.141	124.986	169.916	137.305	148.334	139.310	187.845	146.185	104.097	199.376	87.624	29.366
32.000	332.733	335.741	287.469	249.820	279.901	269.396	278.683	227.284	274.911	310.578	219.453	331.873	87.194	85.165	124.294	168.770	139.429	149.313	140.456	190.948	144.037	108.012	199.399	89.391	42.902
33.000	331.085	334.523	288.065	247.528	280.903	272.022	281.357	226.973	277.466	302.795	219.859	329.939	89.223	85.953	124.007	170.536	138.403	146.735	137.854	193.121	141.053	115.795	198.635	89.796	54.497
34.000	327.743	333.950	287.492	243.255	283.744	275.580	285.272	235.783	280.450	292.124	220.886	327.409	92.637	86.335	125.057	175.072	136.159	143.225	133.962	184.025	138.498	127.731	197.776	91.611	45.203
35.000	323.446	332.780	286.752	236.523	286.275	279.399	289.211	244.449	282.384	276.511	221.530	323.350	96.481	87.457	125.153	182.163	132.482	138.856	129.689	174.643	136.326	143.130	196.606	95.932	30.855
36.000	317.239	331.133	285.201	228.119	289.498	283.625	293.079	252.351	284.198	257.746	222.581	319.531	102.831	88.722	126.848	190.137	129.092	134.822	125.654	166.550	134.726	161.106	195.580	100.396	32.389
37.000	307.331	330.274	283.434	220.026	292.768	287.922	297.066	258.844	285.033	236.236	223.225	312.846	110.519	90.202	128.567	198.421	126.132	131.145	122.097	160.247	133.795	182.067	194.720	106.126	45.609
38.000	294.463	328.173	281.238	225.827	295.991	291.384	300.193	263.929	285.965	224.634	223.846	307.475	125.225	92.017	131.742	193.025	123.195	127.325	118.659	154.541	132.983	194.744	194.100	112.405	51.835
39.000	274.935	325.714	278.731	236.356	298.689	295.084	303.106	268.537	286.251	242.491	224.395	300.766	144.658	93.783	134.583	182.425	120.307	123.625	115.986	150.554	132.602	177.149	193.670	118.994	41.683
40.000	251.706	322.801	275.030	245.666	300.885	298.307	305.207	271.784	286.251	256.218	225.063	293.938	169.343	97.460	138.546	172.351	117.872	120.259	113.479	146.615	132.506	162.252	193.192	126.490	32.344
41.000	230.148	319.913	270.160	254.977	302.819	301.244	307.164	274.362	286.538	267.439	225.636	286.681	188.609	100.277	142.581	163.541	115.890	117.203	111.474	143.679	132.172	151.271	192.763	132.625	36.224
42.000	224.108	314.684	265.147	262.401	304.490	303.941	308.883	276.893	286.585	275.412	225.971	279.877	196.320	104.479	148.573	156.403	114.314	114.744	109.969	141.363	132.243	143.559	192.476	139.573	46.376
43.000	239.029	309.599	259.704	268.728	306.114	306.496	310.220	279.041	286.705	281.620	226.138	273.479	181.065	110.280	154.661	149.910	112.715	112.500	108.895	139.477	132.172	137.496	192.023	145.995	46.556
44.000	252.351	302.270	253.712	274.147	307.451	308.119	311.366	280.426	286.466	286.251	226.305	266.985	166.955	117.609	161.823	144.419	111.450	110.638	107.821	137.591	132.172	132.888	191.808	152.560	39.833
45.000	264.144	294.225	246.836	278.588	308.429	309.623	312.082	282.145	286.490	289.546	226.878	259.871	155.138	126.323	168.841	139.620	110.184	109.038	106.985	136.159	132.267	129.832	191.545	159.101	35.953
46.000	273.574	284.628	240.629	282.670	309.217	310.817	312.607	283.362	286.896	292.124	226.663	253.640	145.971	134.416	175.526	136.111	109.373	107.916	106.269	134.893	132.243	126.896	191.426	165.117	39.382
47.000	280.498	274.147	235.090	285.368	309.957	311.915	313.324	284.723	286.776	294.392	226.973	247.194	139.095	144.562	182.425	133.222	108.561	107.152	105.959	133.795	132.387	124.723	191.259	171.038	44.797
48.000	285.797	264.168	230.984	287.970	310.674	312.703	313.682	285.750	286.657	296.182	227.093	242.109	133.867	155.544	187.988	130.692	107.964	106.269	105.505	132.936	132.482	123.124	191.139	176.887	43.127
49.000	289.808	252.876	230.745	290.286	311.270	313.204	313.968	286.609	286.466	297.328	227.451	237.310	129.975	166.932	190.280	128.448	107.391	105.863	105.195	131.575	132.363	121.238	190.877	181.948	39.427
50.000	292.912	239.578	232.440	292.291	311.963	313.324	314.159	287.994	286.203	298.761	227.427	232.178	126.514	179.346	187.749	126.490	107.033	105.266	104.789	130.596	132.434	120.020	190.853	187.248	39.112
51.000	295.251	226.066	236.594	293.867	312.034	313.777	314.326	288.853	286.442	300.456	227.833	226.902	123.912	192.500	183.500	124.628	106.484	105.028	104.693	129.593	132.554	118.659	190.638	191.593	41.007
52.000	297.209	230.817	240.748	295.132	312.392	314.040	314.541	289.737	286.561	301.387	227.952	223.153	122.264	189.587	178.749	123.339	106.221	104.813	104.574	128.997	132.578	117.824	190.399	195.413	42.044
53.000	298.665	244.663	245.093	296.421	312.488	314.064	314.493	290.310	286.609	302.294	227.904	220.742	120.450	175.550	174.356	122.431	106.102	104.574	104.383	128.042	132.482	117.060	190.351	198.612	40.826
54.000	300.503	255.383	249.080	297.137	312.989	314.398	314.756	291.336	286.609	302.676	228.143	218.976	119.018	163.852	170.298	121.333	105.672	104.383	104.359	127.445	132.769	116.272	190.041	200.450	40.014
55.000	301.387	264.502	252.566	298.116	313.347	314.637	314.971	291.885	286.442	303.488	228.334	219.095	117.872	154.732	166.717	120.545	105.577	104.168	104.240	126.681	132.649	115.675	190.089	200.856	40.555
56.000	302.389	271.091	255.216	299.023	313.467	314.804	315.066	292.840	286.370	303.750	228.262	220.050	116.869	148.310	163.709	119.901	105.410	104.192	104.120	125.917	132.602	115.007	190.017	199.996	40.646
57.000	303.488	276.296	257.985	299.501	313.682	315.186	315.138	293.318	286.251	304.443	228.143	221.387	116.105	143.297	161.035	119.376	105.362	104.216	104.120	125.296	132.792	114.649	189.946	198.468	39.924
58.000	304.037	280.307	260.754	299.668	313.514	314.947	315.496	293.771	286.728	304.968	228.453	223.177	115.460	139.214	158.337	118.731	105.410	104.240	104.144	125.057	132.602	114.076	189.874	196.535	40.285
59.000	304.538	283.338	262.951	300.408	313.538	314.780	315.162	293.938	286.251	305.183	228.597	225.039	114.625	136.183	156.165	118.397	105.075	103.929	104.025	124.699	132.602	113.718	189.802	194.553	41.683
60.000	305.708	285.630	264.813	300.503	313.992	315.019	315.377	294.249	286.418	305.517	228.334	226.902	114.195	133.604	154.064	118.134	105.123	104.025	103.929	124.580	132.673	113.479	189.826	192.691	41.593
61.000	305.899	288.185	266.818	301.196	313.920	314.995	315.210	294.702	286.466	305.565	228.334	228.931	113.670	131.718	152.512	117.633	105.004	104.001	104.049	124.437	132.721	113.192	189.755	190.924	39.833
62.000	306.305	289.784	268.131	301.482	314.016	314.995	315.472	294.631	286.132	305.827	228.286	230.339	113.192	129.665	150.865	117.418	104.837	103.906	103.977	124.246	132.673	112.930	189.755	188.943	39.337
63.000	306.734	291.050	269.611	301.649	314.207	315.377	315.663	294.654	286.299	306.639	228.621	232.154	112.619	128.042	149.313	117.132	105.123	104.001	103.882	123.959	132.602	112.572	189.564	187.319	40.691
64.000	306.925	292.745	271.258	301.578	314.111	315.090	315.377	294.893	286.156	306.329	228.740	233.610	112.357	126.848	147.833	116.988	104.813	103.715	103.882	123.912	132.792	112.405	189.587	185.672	43.037
65.000	307.642	293.891	272.428	302.151	314.207	315.424	315.568	295.275	286.347	306.782	228.835	235.544	112.142	125.630	146.687	116.702	104.813	103.739	103.786	123.649	132.673	112.046	189.492	184.097	41.819
66.000	307.737	294.822	273.431	301.984	314.207	315.377	315.663	295.275	286.084	306.806	228.788	236.976	111.593	124.652	145.613	116.559	104.741	103.810	103.929	123.649	132.745	111.808	189.444	182.831	39.247
67.000	308.406	295.514	274.816	302.318	314.183	315.544	315.902	295.323	286.418	307.164	228.812	238.194	111.569	123.673	144.658	116.153	104.622	103.715	103.834	123.625	132.912	111.712	189.516	181.614	38.841
68.000	308.358	296.755	275.389	302.771	314.207	315.424	315.544	295.156	286.060	307.355	229.146	239.435	111.068	122.957	143.655	116.224	104.622	103.667	103.691	123.386	132.840	111.521	189.396	180.062	41.728
69.000	308.453	297.591	276.009	302.962	314.302	315.305	315.305	295.347	286.084	307.379	228.883	240.175	111.068	122.360	142.772	115.890	104.598	103.834	103.739	123.410	132.792	111.450	189.516	178.868	43.984
70.000	308.716	297.901	276.869	302.819	314.231	315.472	315.902	295.872	286.275	307.355	228.764	241.608	110.566	121.620	142.032	115.842	104.479	103.715	103.715	123.386	132.769	111.187	189.396	177.627	41.683
71.000	309.026	298.379	277.680	303.106	314.350	315.615	315.711	295.777	286.275	307.880	228.406	242.849	110.805	120.927	141.220	115.723	104.646	103.667	103.786	123.076	132.745	111.044	189.396	176.672	38.886
72.000	309.002	298.928	278.731	303.082	314.493	315.066	315.591	296.039	286.203	307.976	229.050	244.067	110.614	120.545	140.742	115.508	104.359	103.619	103.786	123.291	132.769	110.972	189.396	175.645	38.570
73.000	309.217	299.190	279.304	303.297	314.684	315.090	315.591	295.991	285.988	308.119	228.955	244.759	110.160	119.901	140.169	115.532	104.574	103.762	103.739	123.004	132.816	110.877	189.373	174.452	42.405
74.000	309.575	300.289	279.662	303.583	314.231	315.186	315.544	296.182	286.203	308.095	229.265	246.335	109.993	119.567	139.596	115.436	104.479	103.667	103.619	123.052	132.888	110.638	189.420	172.995	44.436
75.000	309.695	300.217	280.044	303.297	314.326	315.520	315.878	296.397	286.275	308.143	228.883	247.672	110.041	118.946	138.713	115.246	104.288	103.715	103.762	122.885	132.888	110.638	189.373	171.849	40.961
76.000	309.766	300.885	280.689	303.703	314.446	315.329	315.544	296.135	286.084	308.716	229.217	248.674	109.731	118.707	138.355	115.317	104.479	103.858	103.715	122.718	132.745	110.423	189.373	170.823	37.893
77.000	309.742	301.196	281.787	303.488	314.589	315.281	315.568	296.278	285.941	308.525	229.170	249.176	109.635	118.397	137.925	115.078	104.407	103.595	103.643	122.646	132.769	110.280	189.205	169.963	38.615
78.000	309.719	301.363	281.596	303.559	314.422	315.329	315.400	296.159	286.156	308.859	229.170	250.298	109.564	117.919	137.448	115.126	104.407	103.595	103.571	122.670	132.816	110.280	189.182	169.223	43.353
79.000	310.483	301.745	282.121	303.846	314.804	315.353	315.735	296.421	286.203	308.740	228.740	250.775	109.588	117.704	137.042	114.935	104.359	103.643	103.691	122.622	132.769	110.304	189.158	168.436	44.255
80.000	310.483	302.055	282.527	303.583	314.302	315.806	315.830	296.493	286.251	308.549	229.408	251.730	109.229	117.657	136.708	114.887	104.455	103.619	103.619	122.599	132.769	110.137	189.182	167.624	40.330
81.000	310.220	302.007	282.670	303.846	314.756	315.544	315.950	296.254	286.227	309.217	229.217	252.780	109.229	117.346	136.206	114.816	104.335	103.667	103.786	122.670	132.864	109.922	189.205	166.884	37.126
82.000	310.268	302.222	283.100	303.846	314.278	315.615	315.687	296.493	286.299	309.193	229.026	253.353	108.895	116.964	135.944	114.792	104.383	103.715	103.619	122.575	132.721	109.898	189.110	166.191	39.337
83.000	310.506	302.485	283.577	303.941	314.684	315.353	315.615	296.493	285.893	308.883	229.313	254.284	108.824	116.845	135.657	114.887	104.431	103.595	103.715	122.527	132.769	109.993	189.134	165.332	44.165
84.000	310.578	302.939	284.150	303.989	314.278	315.424	315.687	296.421	286.179	309.050	229.170	255.096	109.015	116.559	135.323	114.792	104.383	103.667	103.667	122.384	132.792	109.778	189.205	164.592	43.804
85.000	310.841	303.177	284.079	304.299	314.613	315.377	315.544	296.421	286.442	309.504	229.241	255.550	108.871	116.463	135.037	114.673	104.359	103.643	103.906	122.503	132.792	109.659	189.110	163.756	39.157
86.000	310.793	302.939	284.556	304.084	314.613	315.496	315.568	296.612	286.514	309.384	229.026	256.290	108.800	116.033	134.631	114.601	104.407	103.691	103.595	122.312	132.864	109.659	189.182	163.040	36.946
87.000	310.888	303.535	284.580	304.443	314.660	315.496	315.520	296.803	286.275	309.122	229.170	256.863	108.633	115.914	134.416	114.577	104.311	103.619	103.548	122.431	132.769	109.635	189.205	162.587	41.007
88.000	310.888	303.416	285.153	304.061	314.565	315.233	315.711	296.469	286.514	309.575	229.217	257.293	108.585	115.986	134.201	114.553	104.240	103.643	103.619	122.384	132.960	109.516	189.158	162.014	45.022
89.000	311.103	303.965	285.344	304.395	314.589	315.281	315.663	296.731	286.394	309.432	229.193	257.889	108.656	115.556	133.891	114.410	104.288	103.619	103.595	122.240	132.769	109.420	189.038	161.202	43.262
90.000	311.175	304.061	285.845	304.013	314.637	315.591	315.568	296.660	286.275	309.695	229.432	259.179	108.537	115.604	133.747	114.577	104.311	103.643	103.548	122.217	132.888	109.420	189.038	160.199	37.623
91.000	311.366	303.917	285.535	304.586	314.565	315.377	315.878	296.660	286.132	309.623	229.217	259.942	108.298	115.222	133.294	114.386	104.359	103.571	103.452	122.288	132.769	109.373	189.014	159.555	37.036
92.000	311.270	304.228	285.941	304.037	314.732	315.472	315.687	296.779	286.442	309.552	229.456	260.133	108.274	115.174	133.103	114.386	104.359	103.595	103.595	122.193	132.888	109.373	188.967	159.220	42.405
93.000	310.936	304.299	286.299	304.490	314.565	315.257	315.520	296.731	286.156	309.599	229.146	260.587	108.203	115.078	133.079	114.362	104.311	103.548	103.739	122.169	132.816	109.277	188.943	158.552	45.609
94.000	311.247	304.681	286.394	304.228	314.565	315.854	315.687	296.755	286.394	309.910	229.504	260.969	108.274	115.150	132.840	114.338	104.264	103.524	103.571	122.097	132.792	109.277	188.943	158.194	42.135
95.000	311.557	304.562	286.896	304.610	314.756	315.544	315.759	296.708	286.108	309.695	229.384	261.423	108.418	114.935	132.745	114.362	104.216	103.548	103.595	122.264	132.840	109.206	188.943	157.740	36.675
96.000	311.318	304.920	286.657	304.466	314.541	315.448	315.591	296.779	286.466	309.766	229.408	261.924	108.036	114.768	132.339	114.171	104.311	103.715	103.715	122.145	132.936	109.134	188.871	157.311	37.487
97.000	311.414	304.920	287.325	304.371	314.446	315.663	315.759	296.708	286.203	309.910	229.384	262.521	108.012	114.744	132.315	114.219	104.192	103.476	103.595	122.026	132.864	109.038	189.110	156.833	43.669
98.000	311.533	304.920	287.254	304.681	314.541	315.138	315.759	296.851	286.084	310.053	228.979	263.356	108.012	114.386	132.076	114.195	104.216	103.452	103.500	122.240	132.840	109.206	188.991	156.260	45.789
99.000	311.915	305.135	287.397	304.777	314.851	315.973	315.902	296.851	286.227	310.029	229.528	263.691	107.869	114.291	131.885	113.980	104.264	103.619	103.715	122.049	132.792	108.895	188.991	155.496	41.052
100.000	311.867	305.230	287.516	304.443	314.493	315.544	315.806	297.042	286.538	310.268	229.337	264.526	107.821	114.267	131.766	114.076	104.288	103.619	103.595	121.930	132.816	108.895	189.038	155.043	35.728
101.000	311.652	305.111	287.469	304.801	314.828	315.615	315.711	296.803	286.299	310.220	229.575	264.693	107.749	114.123	131.432	114.100	104.264	103.500	103.595	121.930	132.864	108.919	188.895	154.708	38.209
102.000	311.652	305.493	287.588	304.395	314.732	315.711	315.687	296.731	286.275	309.910	229.337	265.147	107.797	114.004	131.384	113.885	104.192	103.524	103.786	122.193	132.816	108.871	188.991	154.279	44.842
103.000	311.796	306.042	288.567	304.777	314.732	315.353	315.615	296.708	286.132	310.220	229.575	265.171	107.797	113.932	131.312	114.076	104.240	103.548	103.619	122.049	132.840	108.752	188.895	153.992	45.248
104.000	311.963	305.541	288.447	304.848	314.469	315.233	315.687	297.137	286.347	310.220	229.647	265.696	107.701	113.956	131.169	114.076	104.216	103.476	103.643	121.906	132.745	108.871	188.943	153.682	39.472
105.000	311.987	305.421	288.113	304.681	315.066	315.735	315.830	296.922	286.442	310.339	229.361	265.672	107.630	113.980	131.026	113.885	104.311	103.619	103.762	122.049	132.792	108.704	188.967	153.300	35.547
106.000	311.605	305.636	288.471	305.016	314.469	315.687	315.520	296.922	286.275	310.148	229.575	266.197	107.511	113.813	130.811	113.909	104.168	103.595	103.524	121.930	132.888	108.847	188.871	153.037	39.698
107.000	311.700	305.398	288.591	304.705	314.756	315.735	315.735	296.994	286.036	310.077	229.432	266.412	107.654	113.789	130.644	113.956	104.192	103.500	103.548	121.882	132.816	108.585	188.823	152.607	45.834
108.000	312.058	305.827	288.519	304.490	314.732	315.615	315.806	297.042	286.179	310.220	229.504	266.842	107.511	113.789	130.811	113.956	104.120	103.500	103.619	121.906	132.912	108.656	188.776	152.345	44.616
109.000	311.939	305.851	288.758	304.968	314.875	315.305	315.663	296.899	286.275	310.339	229.289	267.272	107.296	113.670	130.548	113.837	104.192	103.643	103.619	121.954	132.912	108.585	188.895	152.034	38.029
110.000	311.915	305.803	289.020	305.039	314.923	315.735	315.782	296.803	285.965	310.196	229.265	267.272	107.558	113.550	130.429	113.813	104.216	103.667	103.595	121.906	132.840	108.418	188.680	151.796	35.728
111.000	312.058	305.899	288.901	304.777	314.875	315.615	315.735	297.042	286.275	310.124	229.432	267.773	107.463	113.479	130.357	113.813	104.144	103.452	103.643	121.978	132.864	108.489	188.823	151.414	41.367
112.000	312.058	305.923	288.853	304.992	314.851	315.377	315.735	296.899	286.251	310.435	229.313	268.059	107.534	113.288	130.262	113.956	104.311	103.619	103.595	121.811	132.912	108.465	188.776	151.151	46.511
113.000	311.509	306.400	289.164	304.705	314.446	315.281	315.663	297.137	286.203	310.411	229.456	268.704	107.296	113.407	130.143	113.861	104.264	103.500	103.548	121.787	132.745	108.442	188.704	150.674	43.172
114.000	312.154	306.376	289.211	304.634	314.660	315.615	315.544	296.899	286.514	310.363	229.432	269.086	107.272	113.288	129.880	113.861	104.168	103.500	103.619	121.811	132.888	108.418	188.752	150.148	36.810
115.000	311.772	306.520	289.689	304.896	314.565	315.377	315.687	297.042	286.012	310.554	229.408	269.898	107.248	112.978	129.880	113.837	104.192	103.571	103.524	121.787	132.792	108.418	188.704	149.623	36.269
116.000	312.488	306.376	289.498	305.016	314.780	315.591	315.782	297.066	286.323	310.626	229.695	269.826	107.367	112.739	129.689	113.789	104.144	103.452	103.595	121.787	132.792	108.251	188.847	149.361	43.488
117.000	312.082	306.663	289.617	305.278	314.804	315.735	315.806	297.137	286.132	310.363	229.647	270.518	107.415	112.906	129.402	113.718	104.168	103.524	103.524	121.811	132.936	108.227	188.680	148.955	46.692
118.000	311.915	306.591	289.760	304.944	314.398	315.353	315.926	297.090	286.347	310.602	229.838	270.733	107.081	112.787	129.474	113.694	104.144	103.500	103.667	121.763	132.816	108.298	188.561	148.621	41.819
119.000	312.178	306.663	289.665	305.207	314.995	315.735	315.591	297.042	286.370	310.721	229.623	270.805	107.129	112.858	129.426	113.741	104.192	103.571	103.667	121.715	132.816	108.251	188.752	148.501	35.322
120.000	311.867	306.758	290.333	304.944	314.565	315.162	315.639	297.042	286.060	310.650	229.695	271.211	107.129	112.691	129.188	113.718	104.264	103.476	103.548	121.739	132.840	108.203	188.680	148.239	37.352
121.000	312.798	306.782	289.737	305.016	314.613	315.687	315.902	297.090	286.108	310.769	229.647	271.378	107.129	112.643	129.235	113.694	104.025	103.476	103.667	121.739	132.912	108.274	188.656	148.000	44.661
122.000	312.560	306.782	290.310	305.230	315.090	315.687	315.639	297.090	286.156	310.697	229.814	271.664	106.914	112.691	129.020	113.765	104.192	103.595	103.452	121.548	132.840	108.155	188.585	147.618	46.421
123.000	313.061	306.615	290.047	305.063	314.899	315.854	316.045	297.281	286.347	310.650	229.743	271.927	107.152	112.596	128.901	113.718	104.168	103.428	103.595	121.644	132.792	108.107	188.632	147.379	40.375
124.000	312.727	307.307	290.524	305.398	314.732	315.281	315.615	297.281	286.251	310.697	229.480	272.381	107.081	112.452	129.092	113.503	104.144	103.452	103.548	121.858	132.983	108.227	188.704	147.164	34.915
125.000	312.536	306.997	290.381	305.087	314.828	315.639	315.806	297.185	286.132	310.841	229.743	272.237	107.033	112.381	128.782	113.598	104.288	103.548	103.643	121.811	132.864	108.107	188.585	146.926	38.119
126.000	312.631	306.854	290.262	304.896	314.541	315.520	315.806	297.090	286.275	310.817	229.528	272.476	106.914	112.285	128.686	113.694	104.097	103.404	103.500	121.620	132.864	108.012	188.561	146.830	45.564
127.000	312.703	306.949	290.835	305.183	314.637	315.735	315.639	297.090	286.203	310.841	229.265	273.001	107.057	112.381	128.591	113.598	104.120	103.643	103.595	121.524	132.960	107.988	188.513	146.567	45.564
128.000	312.225	306.973	290.644	305.063	314.947	315.377	315.639	297.233	286.251	310.793	229.623	273.168	106.985	112.333	128.495	113.670	104.216	103.595	103.500	121.620	132.888	107.869	188.585	146.448	38.660
