-----------------------------------------------------
BloodHound 307 VOC Analyser V2017.1
RoboScientific Ltd 
Espace North
Wisbech Road
Littleport
Cambridgeshire, UK
CB6 1RA 
-----------------------------------------------------
Date = 06/04/2022
Time = 12:39:03
Data is protected by RoboScientific Limited
-----------------------------------------------------
Name of the experiment = "32b_Day 43"
-----------------------------------------------------
Repeat No. = 3/4
-----------------------------------------------------
Experimental Time (in sec) and Flow Profile :
-----------------------------------------------------
Baseline = 2.00
Absorb = 4.00
Pause = 1.00
Desorb = 5.00
Flush = 20.00
Wait = 5.00
Higher Flow (V) = 4.00
Medium Flow (V) = 3.00
Low Flow (V) = 1.00
-----------------------------------------------------
Total Profile Time = 37 in sec
-----------------------------------------------------
Acquired data point per second = 4
--------------------------------------------------
Total data point stored  = 128
-----------------------------------------------------
Acquired sensor responses from 24 sensors
-----------------------------------------------------

Data Points	 Sen-1	 Sen-2	 Sen-3	 Sen-4	 Sen-5	 Sen-6	 Sen-7	 Sen-8	 Sen-9	 Sen-10	 Sen-11	 Sen-12	 Sen-13	 Sen-14	 Sen-15	 Sen-16	 Sen-17	 Sen-18	 Sen-19	 Sen-20	 Sen-21	 Sen-22	 Sen-23	 Sen-24	Humidity (%r.h.)
0.000	313.156	308.119	292.315	305.469	314.756	315.544	315.759	297.854	286.538	311.581	229.910	279.399	106.174	111.235	126.824	113.025	104.144	103.595	103.691	121.262	132.816	107.272	188.012	139.740	35.953
1.000	313.443	308.310	292.649	305.803	314.708	315.520	315.759	297.877	286.203	311.342	230.316	279.853	106.126	111.235	126.729	112.906	103.906	103.428	103.357	121.142	132.745	107.415	188.036	139.573	35.231
2.000	312.989	308.477	292.506	305.541	314.589	315.472	315.472	297.782	286.370	311.819	229.886	279.925	106.126	111.235	126.753	112.978	104.001	103.548	103.452	121.309	132.769	107.367	188.012	139.429	43.443
3.000	313.443	308.549	292.506	305.445	314.493	315.591	315.806	298.045	286.323	311.676	230.148	279.925	106.150	111.163	126.776	113.049	103.929	103.357	103.428	121.118	132.769	107.296	187.964	139.286	48.000
4.000	313.347	308.620	292.554	305.684	314.684	315.377	315.735	297.925	286.657	311.485	230.339	279.757	106.174	111.139	126.729	112.930	104.001	103.571	103.595	121.118	132.721	107.296	188.036	139.119	41.728
5.000	312.989	308.215	292.768	305.756	314.947	315.424	315.639	297.686	285.941	311.557	230.220	280.044	105.935	111.115	126.633	113.049	104.025	103.571	103.548	121.166	132.745	107.200	187.964	139.023	34.103
6.000	313.801	308.477	292.673	305.827	314.851	315.711	315.926	297.925	286.156	311.748	230.172	280.044	106.293	111.068	126.657	113.001	104.049	103.476	103.500	121.214	132.745	107.320	188.036	138.737	37.081
7.000	313.538	308.429	292.554	305.851	315.233	315.448	315.496	297.567	286.418	311.748	230.005	280.617	106.006	110.901	126.466	113.073	104.097	103.428	103.500	121.023	132.745	107.200	188.179	138.546	45.744
8.000	313.180	309.098	292.936	305.875	314.947	315.496	315.591	297.495	286.156	311.843	230.125	280.689	106.197	111.068	126.514	112.834	103.906	103.476	103.571	121.166	132.721	107.176	187.964	138.522	47.233
9.000	313.324	308.811	293.031	305.636	314.565	315.424	315.591	297.663	286.323	311.772	230.530	280.760	105.768	110.853	126.347	112.954	104.049	103.428	103.571	120.975	132.792	107.272	188.012	138.355	39.743
10.000	312.034	306.973	292.386	305.541	315.019	315.615	315.663	297.400	286.752	311.294	229.743	277.370	107.176	112.906	126.609	113.049	104.097	103.476	103.452	121.262	132.411	107.845	188.155	142.342	33.607
11.000	296.588	256.600	289.378	304.443	314.493	315.353	315.568	295.944	287.492	305.183	227.498	278.086	121.333	159.340	129.402	114.219	104.359	103.643	103.548	122.551	131.312	112.906	190.614	140.766	41.232
12.000	266.078	277.131	280.665	301.053	313.873	314.875	315.806	291.933	288.352	287.349	225.923	300.002	152.512	142.676	138.188	117.513	104.908	104.120	103.691	126.729	130.787	131.026	192.667	119.686	34.780
13.000	231.056	300.074	270.089	295.824	313.491	314.064	315.090	287.278	288.185	272.667	224.013	312.440	189.277	118.827	149.361	122.766	105.219	104.622	103.906	131.408	130.548	146.329	193.885	108.322	34.374
14.000	262.879	312.178	257.985	288.447	312.870	313.395	314.684	282.431	288.137	255.478	223.010	318.361	155.950	105.935	161.417	130.525	105.983	105.434	104.168	136.517	130.883	164.282	195.150	100.921	47.323
15.000	286.514	319.125	246.764	279.638	312.010	312.392	314.326	276.558	287.445	232.894	222.437	323.064	132.339	99.012	172.781	138.713	106.723	106.245	104.550	141.339	131.432	184.383	196.081	97.054	52.738
16.000	301.817	323.947	238.313	270.256	311.103	311.032	313.634	270.471	286.466	232.798	221.482	326.311	116.773	94.308	183.261	148.358	107.582	107.558	105.099	147.594	132.220	184.240	197.108	94.499	40.420
17.000	312.249	327.337	237.215	260.110	309.981	309.504	312.846	263.858	285.439	255.096	221.172	328.149	106.603	92.255	182.783	158.122	108.991	109.349	105.815	154.637	133.174	164.855	197.585	92.781	29.005
18.000	319.435	329.223	243.589	250.584	308.119	306.854	311.843	256.958	284.842	270.924	220.336	329.271	99.608	90.226	172.804	168.627	110.280	111.688	107.105	162.300	134.392	147.403	198.039	91.014	35.818
19.000	323.995	330.918	251.253	240.820	306.711	304.132	310.387	249.390	283.529	282.598	220.599	329.653	95.622	88.794	162.252	178.104	112.070	114.410	108.561	169.701	135.514	135.514	198.301	90.155	51.294
20.000	326.597	331.825	258.773	231.629	304.586	301.387	308.907	242.372	282.312	291.790	220.145	330.918	92.375	88.125	153.085	186.746	113.837	117.394	110.208	176.934	136.517	126.394	198.540	89.558	51.880
21.000	328.125	333.138	264.693	223.440	302.270	297.233	306.376	235.329	281.070	298.140	220.360	332.016	90.011	87.123	145.708	195.174	116.105	121.118	112.882	183.953	137.830	120.354	198.325	88.459	36.540
22.000	330.345	333.282	270.327	221.005	300.026	293.127	303.130	229.766	279.471	302.724	219.931	332.422	88.698	86.550	140.241	197.585	118.659	125.225	115.675	190.686	139.429	115.078	198.683	88.579	28.238
23.000	331.969	333.831	274.577	227.188	296.899	288.853	300.002	224.896	277.824	306.734	220.002	332.255	87.385	85.857	134.726	191.139	121.811	129.761	119.113	194.911	140.695	111.092	198.444	87.767	39.969
24.000	332.947	334.141	277.919	233.371	293.628	284.293	295.848	224.108	276.439	309.671	219.835	333.091	86.406	85.738	131.599	184.168	125.105	134.368	123.315	194.720	142.318	108.322	198.803	87.457	53.865
25.000	333.091	334.595	281.118	239.101	290.214	279.280	291.384	226.138	274.911	312.488	219.954	332.900	85.642	84.687	128.639	179.561	128.877	138.785	127.182	192.452	143.822	106.699	199.041	87.409	48.993
26.000	333.688	334.523	282.765	239.435	287.660	277.537	288.877	226.233	274.577	311.939	219.859	333.186	86.192	85.117	127.182	179.298	131.288	140.933	130.692	192.404	144.443	106.508	199.041	87.910	32.614
27.000	333.306	334.810	283.482	238.409	287.278	277.871	288.304	225.493	274.863	311.700	219.740	333.138	85.690	84.783	127.421	180.301	131.647	140.647	131.145	192.977	144.180	107.176	199.137	87.696	29.591
28.000	333.664	334.881	283.649	237.287	287.373	278.206	287.898	224.992	274.840	311.652	219.835	333.091	85.714	85.213	126.729	181.232	131.575	140.169	131.432	193.359	143.846	107.033	199.065	87.314	44.571
29.000	332.924	334.977	283.959	236.117	287.851	278.874	287.540	224.729	275.198	311.461	219.763	333.520	85.547	84.831	126.943	182.473	131.599	139.644	131.456	193.956	143.583	107.176	199.041	87.027	55.084
30.000	332.852	335.120	284.341	239.531	286.418	277.131	286.084	225.947	274.792	312.488	219.835	333.520	85.428	84.544	125.917	178.391	132.721	141.268	133.031	192.142	143.965	106.150	199.232	87.409	43.939
31.000	333.783	335.120	286.227	243.900	283.864	273.312	283.052	226.567	274.625	311.700	219.740	332.971	86.335	85.571	125.416	174.499	135.347	145.016	136.254	191.712	144.753	106.747	198.994	88.197	29.501
32.000	331.396	334.690	287.182	244.783	281.882	273.144	282.503	224.586	276.606	307.570	220.074	331.157	88.269	85.571	124.723	173.807	137.066	145.207	136.708	194.458	142.318	111.402	198.946	89.319	32.344
33.000	329.199	333.998	287.851	242.276	283.362	276.105	285.392	231.175	279.041	297.925	220.408	329.080	91.324	85.690	124.604	175.908	135.777	142.676	134.082	188.537	139.859	120.545	197.943	90.990	48.271
34.000	325.475	333.067	287.492	237.000	285.893	280.044	288.686	241.059	281.691	285.439	221.602	326.191	94.237	86.788	124.867	181.256	133.031	139.095	130.166	178.868	137.424	134.153	196.964	93.282	53.414
35.000	320.629	332.207	286.251	229.790	289.092	283.697	292.601	249.199	283.673	268.131	222.700	321.846	98.701	87.982	125.893	188.752	129.999	135.204	126.371	170.059	135.633	151.318	195.651	97.722	40.375
36.000	313.514	330.393	284.771	221.602	291.718	287.087	296.421	255.860	284.699	247.242	223.894	316.284	106.651	89.247	127.898	196.845	126.896	131.312	122.622	162.778	134.034	172.637	195.054	102.879	29.636
37.000	302.270	329.032	282.503	223.440	294.631	290.787	299.692	261.900	285.797	224.896	224.156	311.557	117.012	90.871	129.593	195.102	123.625	127.564	119.161	156.570	133.294	193.359	194.267	108.322	36.179
38.000	283.959	326.740	280.617	233.491	297.830	294.607	302.557	266.961	285.965	236.045	224.896	303.870	134.607	93.091	132.960	185.481	121.023	124.341	116.869	152.058	132.769	183.977	193.503	114.935	48.857
39.000	261.924	324.162	276.081	243.494	299.978	297.686	304.681	270.542	286.561	252.279	225.374	297.877	158.791	96.099	136.206	175.430	118.588	120.808	113.932	148.048	132.363	167.123	192.977	121.930	48.948
40.000	236.833	320.509	272.595	252.518	302.389	301.076	307.093	273.670	286.514	264.646	225.445	290.620	183.309	99.083	141.124	165.881	116.487	117.752	111.855	144.896	132.315	154.708	192.572	129.259	39.021
41.000	221.339	316.379	267.319	260.492	303.941	303.631	308.644	275.985	286.728	273.383	225.636	283.625	198.015	103.142	146.185	157.740	114.816	114.983	110.208	142.270	132.220	145.159	192.261	136.612	33.336
42.000	234.541	311.366	261.924	267.391	305.445	305.947	309.910	278.301	286.728	280.187	226.329	275.938	185.338	107.725	152.106	150.912	113.216	112.524	109.038	140.002	132.196	138.761	191.808	142.867	39.472
43.000	247.481	304.705	255.765	273.168	306.615	307.833	311.056	280.068	286.776	284.986	226.758	269.492	171.778	114.338	158.767	145.469	111.760	110.733	107.821	138.116	132.148	133.891	191.593	149.480	46.782
44.000	260.253	297.352	249.534	277.991	308.382	309.623	311.939	281.739	286.943	289.140	226.902	262.951	159.483	122.527	165.714	140.957	110.542	109.086	107.176	136.493	132.076	130.166	191.569	156.117	44.120
45.000	270.351	288.280	243.374	281.381	309.170	311.008	312.870	282.956	286.848	292.005	227.307	256.075	148.764	131.790	173.139	136.851	109.635	107.940	106.627	135.132	132.196	126.872	191.211	162.921	38.660
46.000	278.803	278.134	236.976	285.057	310.148	311.939	313.300	284.413	286.752	294.272	227.284	249.271	141.148	141.268	180.253	133.509	108.776	106.866	105.935	133.938	132.339	124.819	190.996	169.223	37.352
47.000	284.007	267.415	232.369	287.588	310.435	312.631	313.682	285.463	286.728	295.848	227.522	243.804	134.846	151.653	186.030	130.787	108.012	106.365	105.601	132.769	132.267	122.885	190.877	174.881	41.548
48.000	288.925	256.648	229.934	290.047	311.127	313.156	313.849	286.800	286.705	297.328	227.666	238.003	130.572	162.396	190.041	128.758	107.463	105.720	105.219	131.838	132.411	121.453	190.662	180.277	44.255
49.000	292.577	244.449	230.960	292.076	311.652	313.395	314.231	287.683	286.514	298.832	227.737	233.538	127.206	175.239	189.635	126.872	107.129	105.434	105.052	130.596	132.291	120.020	190.399	185.553	41.413
50.000	295.347	229.814	234.589	293.795	312.178	313.777	314.207	288.734	286.442	300.169	227.809	228.310	124.126	189.468	185.553	125.057	106.699	105.028	104.693	129.641	132.458	118.779	190.351	190.471	39.292
51.000	297.686	227.355	238.504	295.108	312.154	314.111	314.541	289.760	286.466	301.076	227.928	223.440	122.240	192.500	180.635	123.410	106.317	104.741	104.574	128.758	132.506	117.466	190.089	195.413	39.518
52.000	299.119	240.724	243.136	296.254	312.751	314.541	314.804	290.620	286.490	302.079	228.453	220.456	120.331	179.561	176.362	122.384	106.078	104.646	104.407	127.970	132.602	116.964	189.898	198.755	41.232
53.000	300.814	253.497	247.695	297.304	313.085	314.708	315.042	291.479	286.299	302.771	228.143	218.952	118.874	166.717	172.136	121.309	105.768	104.288	104.288	127.397	132.434	116.105	189.850	200.569	40.961
54.000	301.769	263.595	250.894	298.307	313.467	314.947	315.329	292.434	286.323	303.870	228.716	219.238	117.752	155.926	168.436	120.378	105.601	104.264	104.216	126.299	132.625	115.317	189.707	200.760	40.510
55.000	302.533	270.996	254.093	299.143	313.491	314.875	315.019	293.270	286.418	304.204	228.692	220.814	116.415	148.597	165.284	119.710	105.457	104.049	104.168	125.559	132.673	114.720	189.587	199.304	40.871
56.000	303.965	276.320	257.054	299.596	313.443	314.828	315.281	293.771	286.538	304.872	228.597	222.366	115.723	142.939	161.942	118.994	105.362	104.049	104.001	125.129	132.649	114.195	189.707	197.513	41.007
57.000	304.848	280.283	259.823	300.432	313.753	315.305	315.448	294.105	286.299	304.992	228.597	224.252	115.031	139.310	159.220	118.731	105.171	104.073	104.073	124.795	132.625	113.718	189.611	195.651	39.788
58.000	305.302	283.577	262.139	300.360	313.705	315.138	315.305	294.463	286.585	305.565	228.573	225.923	114.482	135.896	157.024	118.134	105.219	103.977	103.906	124.556	132.697	113.479	189.516	193.694	39.427
59.000	305.684	285.797	264.073	301.100	313.968	315.186	315.472	294.845	286.538	305.636	229.146	227.785	113.837	133.461	154.971	117.681	104.884	103.929	104.001	124.198	132.697	113.169	189.396	191.951	41.142
60.000	306.161	288.209	265.791	301.554	314.111	315.233	315.305	294.654	286.347	306.209	228.812	229.408	113.527	131.050	153.133	117.490	104.884	103.858	103.882	124.126	132.697	112.834	189.420	190.017	42.495
61.000	306.496	290.095	267.749	301.387	313.729	315.114	315.544	294.845	286.490	306.591	228.979	231.199	113.025	129.450	151.485	117.108	104.956	103.953	103.929	123.768	132.673	112.500	189.229	188.083	41.007
62.000	306.806	291.790	269.349	301.912	314.087	315.090	315.233	295.108	286.347	306.878	229.122	233.085	112.452	127.946	150.029	116.941	104.765	103.810	103.882	123.673	132.745	112.261	189.349	186.436	39.202
63.000	307.355	292.912	270.518	302.031	313.968	315.472	315.735	295.299	286.347	306.639	229.170	234.851	112.428	126.538	148.621	116.582	104.670	103.762	103.929	123.553	132.721	112.023	189.253	184.765	39.247
64.000	307.833	294.368	271.664	302.366	314.040	315.210	315.759	295.514	286.227	307.069	228.907	236.547	111.975	125.368	147.331	116.224	104.670	103.643	103.929	123.482	132.697	111.808	189.086	182.831	42.495
65.000	307.904	295.347	272.786	302.628	314.255	315.400	315.591	295.562	286.179	307.116	229.265	238.242	111.497	124.103	146.138	116.272	104.765	103.834	103.810	123.219	132.673	111.641	189.182	181.375	43.217
66.000	307.976	296.039	274.004	302.628	314.350	315.281	315.472	295.633	286.394	307.713	229.098	239.841	111.306	123.267	145.040	116.081	104.598	103.691	103.643	123.028	132.721	111.497	189.086	179.608	40.194
67.000	308.644	297.018	274.816	302.795	314.469	315.377	315.806	295.896	286.466	307.761	228.979	241.393	111.139	122.312	144.132	115.771	104.598	103.762	103.762	123.124	132.840	111.354	189.062	177.985	38.615
68.000	309.122	297.615	275.890	303.082	314.469	315.472	315.615	296.230	286.323	307.880	229.337	242.968	110.805	121.715	143.154	115.723	104.550	103.834	103.762	122.909	132.721	111.187	189.038	176.338	39.472
69.000	308.979	298.450	276.654	303.249	314.350	315.424	315.568	296.182	286.418	308.143	229.074	244.186	110.686	120.951	142.175	115.580	104.622	103.762	103.739	122.861	132.721	110.877	189.038	175.001	43.894
70.000	309.146	299.358	277.776	303.034	314.350	315.400	315.591	296.206	286.251	308.000	228.979	245.738	110.280	120.402	141.530	115.436	104.479	103.715	103.739	122.933	132.840	110.757	188.919	173.903	43.533
71.000	309.742	299.668	278.230	303.512	314.756	315.663	315.735	296.517	286.108	308.215	229.026	246.955	110.328	119.972	140.862	115.293	104.598	103.643	103.643	122.837	132.912	110.686	188.967	172.542	39.698
72.000	309.408	300.169	278.946	303.488	314.350	315.591	315.520	296.254	286.466	308.429	229.432	247.934	109.802	119.185	140.169	115.269	104.479	103.595	103.691	122.694	132.864	110.495	188.800	171.205	37.668
73.000	309.528	300.933	279.925	303.583	314.517	315.400	315.544	296.278	286.275	308.573	229.432	249.223	109.707	118.874	139.549	115.031	104.383	103.762	103.786	122.646	132.840	110.423	189.014	170.345	40.330
74.000	309.790	300.885	280.187	303.846	314.660	315.377	315.448	296.564	286.347	308.740	229.695	250.035	109.659	118.516	138.976	114.959	104.359	103.667	103.667	122.384	132.816	110.447	188.967	169.271	44.345
75.000	310.005	301.363	280.879	304.061	314.422	315.329	315.496	296.493	286.418	308.740	229.480	251.276	109.659	118.039	138.307	114.744	104.335	103.571	103.691	122.240	132.721	110.160	188.919	168.436	43.172
76.000	310.363	301.745	281.309	303.917	314.350	315.520	315.687	296.540	286.561	309.098	229.552	251.993	109.373	117.872	138.021	114.768	104.311	103.595	103.810	122.479	132.792	110.184	188.871	167.385	38.525
77.000	310.220	302.342	281.596	303.941	314.589	315.329	315.544	296.278	286.275	309.217	229.552	253.139	109.229	117.442	137.519	114.887	104.526	103.595	103.667	122.503	132.888	110.017	188.800	166.382	37.532
78.000	310.411	302.294	282.049	304.061	314.565	315.687	315.591	296.540	286.251	308.835	229.480	253.831	109.229	117.036	136.803	114.720	104.479	103.548	103.643	122.288	132.745	109.826	188.991	165.595	42.360
79.000	310.124	302.724	282.885	303.703	314.087	315.281	315.591	296.493	286.227	309.575	229.528	254.475	108.919	116.797	136.541	114.649	104.407	103.619	103.667	122.336	132.769	109.778	188.776	164.735	44.887
80.000	310.888	302.795	282.980	304.013	314.493	315.639	315.926	296.803	286.251	309.074	229.504	255.550	109.182	116.654	136.254	114.625	104.240	103.619	103.691	122.360	132.792	109.707	188.728	163.661	41.864
81.000	310.888	303.010	283.267	304.180	314.469	315.448	315.735	296.851	286.394	309.528	229.552	257.006	108.752	116.391	135.872	114.458	104.288	103.667	103.571	122.336	132.888	109.611	188.704	162.754	37.081
82.000	310.626	303.225	283.529	304.037	314.398	315.353	315.615	296.851	286.514	309.361	229.743	257.245	108.537	116.200	135.442	114.482	104.407	103.739	103.571	122.121	132.840	109.707	188.632	161.918	38.209
83.000	310.459	303.488	284.246	304.204	314.660	315.233	315.568	296.708	286.084	309.599	229.838	258.104	108.800	115.986	135.084	114.410	104.335	103.595	103.619	121.978	132.792	109.444	188.680	161.441	43.894
84.000	311.079	303.535	284.270	304.347	314.804	315.544	315.830	296.899	286.156	309.528	229.599	258.629	108.513	115.771	134.702	114.243	104.264	103.548	103.643	122.121	132.936	109.397	188.656	160.629	44.977
85.000	311.008	303.798	284.508	304.252	314.398	315.353	315.854	296.779	286.108	309.886	229.743	259.561	108.489	115.651	134.607	114.219	104.264	103.524	103.571	122.073	132.864	109.516	188.656	159.746	40.194
86.000	310.888	303.798	285.248	304.729	314.565	315.591	315.568	296.731	286.179	309.623	229.599	260.492	108.418	115.365	134.225	114.195	104.264	103.619	103.691	122.026	132.792	109.277	188.609	159.197	36.224
87.000	311.366	304.156	285.105	304.371	314.398	315.568	316.164	296.875	286.275	309.575	229.480	260.874	108.465	115.150	133.986	113.980	104.288	103.619	103.619	122.073	133.031	109.206	188.585	158.385	39.292
88.000	311.103	304.395	285.559	304.586	314.493	315.281	315.591	297.113	286.585	309.695	229.671	262.187	108.251	114.911	133.533	114.004	104.240	103.548	103.571	121.954	132.864	109.206	188.680	157.454	44.932
89.000	311.270	304.872	285.797	304.323	314.350	315.424	315.687	296.803	286.609	309.933	229.743	262.234	108.274	114.625	133.365	114.123	104.264	103.428	103.548	121.835	132.816	109.229	188.489	156.570	44.390
90.000	311.032	304.777	285.917	304.753	314.732	315.424	315.615	296.946	286.347	310.053	229.671	263.428	108.083	114.577	133.174	114.052	104.240	103.548	103.476	121.954	132.840	109.158	188.656	156.212	38.751
91.000	311.438	305.159	286.251	304.705	314.684	315.400	315.687	296.875	286.323	309.838	229.671	263.571	108.083	114.482	132.816	113.956	104.264	103.500	103.548	121.954	132.864	109.062	188.442	155.759	36.089
92.000	311.366	304.968	286.466	304.466	314.493	315.424	315.830	297.113	286.323	309.766	229.766	264.455	108.060	114.195	132.554	113.932	104.311	103.548	103.619	121.858	132.745	108.967	188.537	155.066	41.277
93.000	311.461	305.374	286.991	304.657	314.589	315.448	315.735	296.827	286.227	310.077	229.719	264.789	108.083	113.980	132.243	113.909	104.407	103.571	103.476	121.763	132.912	108.943	188.418	154.159	46.105
94.000	312.058	305.660	287.063	304.848	314.637	315.615	316.212	297.113	286.084	309.886	229.790	265.577	107.892	113.861	132.196	113.861	104.288	103.595	103.524	121.858	132.840	108.871	188.465	153.706	42.856
95.000	311.605	306.233	287.516	304.968	314.589	315.210	315.424	296.851	286.442	310.196	229.766	266.317	107.940	113.813	131.981	113.956	104.359	103.548	103.619	121.811	132.816	108.824	188.442	153.085	36.540
96.000	311.414	305.517	287.827	304.825	314.517	315.520	315.591	296.994	286.275	310.363	229.766	266.699	107.701	113.718	131.742	113.813	104.264	103.691	103.524	121.667	132.840	108.704	188.489	152.846	37.081
97.000	312.034	305.827	287.803	305.111	314.756	315.663	315.711	297.018	286.012	310.124	229.886	267.105	107.773	113.598	131.336	113.885	104.288	103.715	103.643	121.882	132.840	108.609	188.465	152.130	43.939
98.000	311.796	306.257	288.424	305.016	314.637	315.472	315.591	296.970	285.941	310.148	229.552	267.725	107.511	113.527	131.312	113.837	104.288	103.571	103.691	121.739	132.983	108.561	188.346	151.557	46.421
99.000	311.891	305.780	288.185	305.063	314.804	315.281	315.472	297.448	286.442	310.387	229.862	267.964	107.725	113.312	131.074	113.718	104.264	103.595	103.619	121.644	132.745	108.633	188.298	151.366	40.826
100.000	311.772	305.875	288.614	305.063	314.995	315.544	315.496	296.922	286.132	310.101	229.886	268.632	107.391	113.360	131.026	113.765	104.192	103.548	103.691	121.787	132.912	108.537	188.418	151.008	35.412
101.000	311.867	306.376	288.734	304.848	314.660	315.329	315.759	297.209	286.514	310.697	229.886	268.847	107.415	113.383	130.787	113.646	104.240	103.571	103.691	121.667	132.864	108.442	188.394	150.674	38.209
102.000	312.082	306.257	288.949	305.039	314.589	315.329	315.830	297.137	286.179	310.244	230.148	268.991	107.511	113.145	130.644	113.741	104.359	103.571	103.476	121.572	132.745	108.418	188.203	150.339	45.157
103.000	311.915	306.114	288.853	305.469	314.971	315.568	315.448	297.066	286.347	310.650	229.957	269.563	107.511	113.169	130.548	113.670	104.168	103.500	103.524	121.620	132.888	108.513	188.394	149.981	45.428
104.000	312.034	306.615	288.734	305.183	314.517	315.472	315.711	297.209	286.347	310.650	230.005	269.898	107.296	112.954	130.334	113.574	104.120	103.548	103.524	121.691	132.816	108.418	188.394	149.361	39.021
105.000	311.915	306.902	288.805	305.135	314.947	315.568	315.377	297.137	286.370	310.530	229.910	270.495	107.343	112.787	130.238	113.718	104.192	103.452	103.595	121.644	132.912	108.442	188.274	149.194	35.186
106.000	312.273	306.472	289.378	305.207	314.804	315.424	315.568	297.448	286.299	310.411	229.934	270.686	107.367	112.930	130.023	113.598	104.168	103.476	103.571	121.691	132.936	108.394	188.346	148.788	40.149
107.000	311.915	306.830	289.355	305.254	314.971	315.424	315.639	297.042	286.299	310.626	230.053	270.948	107.296	112.834	129.904	113.598	104.240	103.715	103.548	121.691	132.792	108.274	188.346	148.430	46.601
108.000	312.464	306.854	289.569	305.063	314.660	315.806	315.854	297.018	286.251	310.745	229.862	271.258	107.105	112.619	129.856	113.455	104.192	103.619	103.571	121.644	132.936	108.251	188.322	147.976	44.165
109.000	312.297	307.021	289.617	305.302	314.828	315.424	315.663	297.042	286.203	310.650	229.838	271.378	107.343	112.619	129.617	113.503	104.240	103.548	103.619	121.524	132.888	108.179	188.203	147.881	37.081
110.000	312.130	306.973	289.402	304.920	314.684	315.687	315.663	297.328	286.370	310.817	230.077	271.784	107.272	112.548	129.761	113.550	104.097	103.595	103.452	121.524	132.769	108.227	188.322	147.642	35.637
111.000	312.512	307.140	289.904	305.135	314.756	315.639	315.735	297.376	286.251	310.793	229.838	271.760	107.176	112.596	129.355	113.431	104.144	103.571	103.643	121.644	132.864	108.060	188.251	147.331	42.360
112.000	312.345	307.164	289.593	305.063	314.493	315.687	315.782	297.281	286.275	310.817	229.862	272.404	107.057	112.452	129.355	113.312	104.120	103.476	103.524	121.572	132.888	108.060	188.274	146.973	47.143
113.000	312.560	307.236	289.760	305.398	314.780	315.305	315.615	297.352	286.275	310.745	230.101	273.144	106.914	112.452	129.211	113.455	104.025	103.428	103.548	121.572	132.983	108.131	188.274	146.639	42.495
114.000	312.416	307.093	289.975	305.302	314.637	315.663	315.782	297.257	286.561	311.079	229.910	273.049	107.009	112.357	129.164	113.240	104.073	103.595	103.619	121.596	132.840	108.060	188.489	146.329	35.322
115.000	312.918	307.212	290.477	305.612	314.851	315.568	315.759	297.376	286.203	310.626	229.957	273.025	107.009	112.309	129.044	113.431	104.001	103.428	103.524	121.429	132.888	108.227	188.346	146.353	36.991
116.000	312.488	307.188	290.190	305.350	314.804	315.759	315.830	297.328	286.179	310.984	229.790	273.192	106.961	112.166	129.044	113.431	104.120	103.524	103.452	121.524	132.936	108.012	188.418	146.090	44.797
117.000	312.392	307.498	290.405	305.350	314.923	315.520	315.448	297.113	286.060	310.650	230.125	273.622	106.914	112.237	128.925	113.360	104.073	103.524	103.548	121.476	132.864	107.988	188.179	145.899	46.737
118.000	312.727	307.021	290.214	305.398	315.090	315.711	315.759	297.400	286.132	310.602	229.910	273.574	106.794	112.261	128.734	113.240	104.025	103.500	103.524	121.405	132.721	108.036	188.298	145.684	40.285
119.000	312.512	307.689	290.429	305.207	314.875	315.591	315.663	297.304	286.132	310.793	230.053	273.885	106.985	112.070	128.782	113.431	104.073	103.548	103.595	121.572	132.769	107.964	188.227	145.613	34.600
120.000	312.488	307.355	290.668	305.278	314.589	315.591	315.663	297.304	286.275	310.793	230.196	274.386	106.747	112.166	128.782	113.383	104.001	103.500	103.500	121.309	132.745	107.988	188.203	145.350	38.029
121.000	312.655	307.546	290.572	305.111	314.541	315.424	315.735	297.424	286.156	311.056	229.814	274.481	106.794	112.070	128.639	113.312	104.120	103.476	103.357	121.381	132.840	108.012	188.251	144.872	45.925
122.000	312.655	307.689	291.097	305.541	315.019	315.735	315.759	297.304	285.917	310.697	229.981	274.672	106.794	111.975	128.424	113.216	104.001	103.548	103.548	121.500	132.816	107.869	188.298	144.443	46.015
123.000	312.154	307.713	290.906	305.517	314.684	315.305	315.663	297.400	286.251	311.056	230.220	274.840	106.747	111.855	128.495	113.288	104.025	103.571	103.595	121.500	132.864	107.892	188.155	144.371	38.796
124.000	312.822	308.000	291.002	305.469	314.875	315.591	315.687	297.328	286.323	310.984	230.029	274.935	106.794	111.951	128.448	113.336	104.120	103.333	103.595	121.405	132.769	107.916	188.155	144.276	34.509
125.000	312.822	307.355	290.859	305.493	314.851	315.329	316.021	297.877	286.299	311.485	230.029	275.150	106.675	111.927	128.233	113.240	103.977	103.500	103.548	121.381	132.840	107.797	188.251	144.132	40.149
126.000	312.965	307.498	291.145	305.159	314.851	315.496	315.902	297.400	286.203	311.008	230.125	275.818	106.579	111.855	128.257	113.312	104.073	103.500	103.643	121.429	132.864	107.821	188.179	143.798	47.278
127.000	312.703	307.570	291.217	305.421	314.732	315.663	315.782	297.782	286.370	311.103	230.101	275.818	106.532	111.808	128.280	113.264	104.097	103.548	103.548	121.309	132.816	107.821	188.203	143.536	44.075
128.000	312.822	307.928	291.312	305.326	314.708	315.496	315.806	297.495	286.370	311.247	230.053	275.890	106.794	111.784	128.113	113.192	104.144	103.476	103.619	121.524	132.888	107.797	188.179	143.321	36.810
