-----------------------------------------------------
BloodHound 307 VOC Analyser V2017.1
RoboScientific Ltd 
Espace North
Wisbech Road
Littleport
Cambridgeshire, UK
CB6 1RA 
-----------------------------------------------------
Date = 04/02/2021
Time = 15:42:54
Data is protected by RoboScientific Limited
-----------------------------------------------------
Name of the experiment = "5863P"
-----------------------------------------------------
Repeat No. = 3/4
-----------------------------------------------------
Experimental Time (in sec) and Flow Profile :
-----------------------------------------------------
Baseline = 2.00
Absorb = 10.00
Pause = 1.00
Desorb = 5.00
Flush = 10.00
Wait = 5.00
Higher Flow (V) = 4.00
Medium Flow (V) = 3.00
Low Flow (V) = 1.00
-----------------------------------------------------
Total Profile Time = 33 in sec
-----------------------------------------------------
Acquired data point per second = 4
--------------------------------------------------
Total data point stored  = 112
-----------------------------------------------------
Acquired sensor responses from 24 sensors
-----------------------------------------------------

Data Points	 Sen-1	 Sen-2	 Sen-3	 Sen-4	 Sen-5	 Sen-6	 Sen-7	 Sen-8	 Sen-9	 Sen-10	 Sen-11	 Sen-12	 Sen-13	 Sen-14	 Sen-15	 Sen-16	 Sen-17	 Sen-18	 Sen-19	 Sen-20	 Sen-21	 Sen-22	 Sen-23	 Sen-24	Humidity (%r.h.)
0.000	316.761	305.302	315.305	314.828	312.607	315.424	315.329	315.472	313.801	313.109	315.210	315.615	103.261	114.314	104.168	103.834	106.078	103.834	104.168	103.691	105.338	106.030	103.571	103.619	26.749
1.000	316.594	305.111	315.186	315.090	312.774	315.233	315.305	315.544	313.944	312.989	314.947	315.782	102.951	114.410	104.383	103.810	106.197	103.786	104.025	103.571	105.290	105.959	103.571	103.643	36.179
2.000	316.284	305.135	315.066	315.090	313.109	315.257	315.257	315.353	313.992	313.371	315.162	315.615	103.046	114.100	104.240	103.810	106.197	103.858	104.025	103.595	105.314	105.935	103.643	103.619	52.467
3.000	316.499	305.302	315.090	315.568	312.989	315.305	315.305	315.353	313.873	313.180	315.448	315.759	102.927	114.410	104.359	103.834	106.293	103.906	104.049	103.643	105.386	105.959	103.571	103.667	45.879
4.000	316.308	304.920	314.756	314.875	312.655	315.591	315.448	315.687	313.825	313.204	315.591	315.663	103.285	114.267	104.264	103.953	106.341	104.049	104.073	103.595	105.290	105.863	103.643	103.715	28.869
5.000	316.475	305.445	314.923	315.042	312.727	315.353	315.472	315.568	313.753	312.942	315.090	315.472	102.998	114.458	104.264	103.619	106.102	103.858	104.240	103.667	105.338	105.839	103.357	103.476	31.171
6.000	316.785	305.684	315.281	315.066	312.631	315.305	315.424	315.496	313.825	313.013	315.162	315.424	103.142	114.338	104.383	103.906	106.245	103.619	104.073	103.595	105.481	106.078	103.667	103.548	48.451
7.000	316.881	305.254	315.544	315.305	312.679	315.162	315.496	315.448	313.873	313.085	315.233	315.568	103.237	114.505	104.288	103.834	106.221	103.786	103.882	103.428	105.290	106.054	103.619	103.595	50.391
8.000	316.952	305.063	315.353	315.448	313.109	315.496	315.568	315.568	313.968	313.228	315.233	315.472	103.428	114.338	104.168	103.786	106.341	103.929	104.120	103.548	105.195	105.959	103.500	103.595	33.833
9.000	316.809	305.326	315.090	315.138	313.061	315.377	315.329	315.496	313.968	313.109	315.210	315.520	103.142	114.219	104.335	103.906	106.150	103.834	103.977	103.452	105.147	105.815	103.476	103.452	27.696
10.000	316.761	305.016	315.162	314.851	312.918	315.329	315.496	315.377	313.992	313.252	315.162	315.544	102.807	114.267	104.288	103.882	106.150	103.858	104.049	103.571	105.219	105.911	103.619	103.571	43.714
11.000	316.523	304.801	314.589	314.637	312.894	315.400	315.615	315.424	313.705	312.798	314.899	315.400	103.070	114.744	104.264	103.906	106.365	103.977	104.097	103.524	105.410	105.863	103.524	103.691	53.369
12.000	316.284	302.580	314.684	314.493	311.987	315.305	315.090	315.114	313.252	312.345	314.851	315.257	103.022	116.917	104.646	103.977	106.985	104.025	104.073	103.595	106.006	106.651	103.691	103.691	40.646
13.000	316.284	299.453	314.613	314.637	311.199	314.875	314.875	315.210	312.154	311.294	314.565	315.114	102.998	119.590	104.765	104.311	107.940	104.407	104.717	103.786	106.842	107.558	103.882	104.025	26.794
14.000	317.072	295.824	314.207	314.111	309.790	314.565	314.660	315.377	310.936	310.124	314.255	314.565	102.855	123.267	105.171	104.455	108.824	104.765	105.123	103.929	108.274	108.585	104.120	104.264	37.126
15.000	316.236	291.646	313.920	313.920	309.193	313.896	313.514	314.756	309.193	309.050	313.825	314.350	103.166	127.134	105.577	104.693	109.826	105.266	105.815	104.216	109.778	109.874	104.908	105.147	52.602
16.000	316.690	287.827	313.395	313.968	308.238	313.658	312.488	314.613	307.260	307.284	312.846	313.514	103.118	131.742	105.935	105.171	110.829	105.911	106.938	104.431	111.879	111.545	105.696	105.696	45.564
17.000	317.239	283.052	312.631	313.538	307.140	312.655	311.103	314.183	305.135	305.780	311.796	312.488	102.975	136.135	106.556	105.625	111.999	106.651	108.609	104.932	114.338	113.240	106.842	106.770	28.915
18.000	316.570	279.065	312.297	312.965	305.684	311.461	308.549	313.729	302.246	304.061	310.435	311.056	103.261	140.193	107.152	105.911	113.240	107.487	110.447	105.171	116.606	114.816	108.083	107.988	31.892
19.000	316.881	274.434	311.676	312.536	304.586	310.650	306.185	313.013	299.262	301.960	308.740	309.933	102.951	144.944	107.487	106.221	114.338	108.465	112.954	105.887	119.925	116.964	109.874	109.444	48.271
20.000	316.379	270.614	310.865	312.058	303.440	309.217	303.750	312.679	296.063	299.859	306.567	307.904	102.975	149.313	108.227	106.866	115.651	109.540	115.795	106.436	123.243	118.946	111.832	110.972	49.985
21.000	316.666	266.030	310.053	311.676	302.437	308.286	300.694	311.963	292.577	298.116	304.323	305.947	102.903	153.706	108.943	107.248	116.750	111.044	118.803	107.129	126.633	121.095	114.267	113.145	35.051
22.000	316.928	261.948	310.077	311.438	301.100	306.448	297.495	311.175	289.140	295.633	301.793	304.013	103.070	157.215	109.540	107.725	117.919	112.357	121.978	107.892	130.166	123.267	116.630	114.887	28.779
23.000	316.761	258.343	309.217	310.721	300.074	305.087	294.034	310.005	285.439	293.413	298.999	301.936	103.428	161.154	110.065	108.155	118.994	114.171	125.487	109.038	133.676	125.248	119.232	117.132	42.721
24.000	316.594	255.550	308.191	309.647	298.689	303.130	290.405	309.146	281.954	291.217	296.230	299.811	103.070	164.473	110.781	108.800	119.996	116.009	129.283	110.137	137.543	127.636	122.193	119.328	51.113
25.000	316.666	251.897	308.095	309.504	298.283	301.482	286.896	307.666	278.373	289.164	293.461	297.686	102.951	167.719	111.617	109.564	121.357	117.824	132.625	110.996	140.862	130.023	125.463	121.715	39.969
26.000	316.594	249.199	306.878	308.477	296.660	299.453	283.171	306.329	274.983	286.919	290.214	295.156	102.998	170.871	112.285	110.256	122.312	119.805	136.421	112.739	144.371	132.029	128.209	123.888	29.005
27.000	316.809	246.573	306.305	308.024	295.681	296.875	279.566	305.636	271.712	285.057	287.397	293.007	102.688	173.521	112.858	110.996	123.553	121.882	139.501	113.407	147.164	133.915	131.265	126.394	37.848
28.000	316.403	244.019	305.469	306.830	294.153	294.678	276.200	304.013	268.489	282.980	284.246	290.572	103.189	175.908	113.455	111.593	124.485	124.174	143.297	115.007	150.936	136.326	134.368	128.662	49.444
29.000	316.355	241.870	304.825	306.161	293.318	292.434	272.858	302.461	265.768	281.214	281.739	288.376	102.855	178.415	114.625	112.596	125.583	126.538	146.400	116.511	153.658	138.283	137.328	130.787	43.217
30.000	316.379	239.960	304.252	305.421	292.243	290.119	269.707	300.981	262.736	279.041	278.779	286.275	103.261	180.492	115.389	113.407	126.753	128.901	149.743	118.206	156.929	140.527	140.193	133.127	31.441
31.000	316.332	237.931	302.915	304.490	291.121	287.683	266.532	299.763	259.919	276.893	276.176	284.079	103.166	182.378	116.105	114.147	128.089	131.193	152.727	119.376	159.244	142.127	142.772	135.347	35.186
32.000	316.737	235.472	302.366	303.774	289.569	285.081	263.404	298.212	257.579	275.269	273.550	281.572	102.951	184.455	117.060	115.007	129.188	133.604	155.639	121.047	161.846	144.061	145.541	137.424	46.466
33.000	316.809	233.992	301.172	302.771	288.495	283.291	261.112	296.540	255.072	273.216	270.972	279.614	103.070	186.126	118.182	116.057	130.572	136.015	158.695	122.790	164.640	145.995	148.024	139.477	45.654
34.000	316.761	232.512	300.360	301.673	287.254	280.951	258.391	294.774	252.542	271.617	268.203	277.657	102.807	187.940	119.232	117.275	131.766	138.236	161.274	124.365	166.788	147.618	150.698	141.817	34.870
35.000	316.523	230.507	299.429	300.790	286.108	279.017	255.812	293.079	250.298	269.563	265.815	275.484	103.070	189.301	120.044	118.277	133.246	140.265	163.923	125.702	169.032	149.432	152.751	143.798	33.336
36.000	316.666	229.337	297.854	299.716	284.842	277.131	253.234	291.503	248.197	268.155	263.929	273.622	103.166	190.948	121.285	119.041	134.344	142.032	166.191	127.851	171.420	151.509	155.162	145.469	43.578
37.000	316.236	228.549	297.018	298.474	283.529	274.840	251.109	289.641	246.335	266.579	261.852	272.285	102.903	192.261	122.742	120.378	135.992	144.371	168.555	129.140	173.091	152.607	157.239	147.642	46.692
38.000	316.761	227.236	295.395	297.257	282.049	273.359	248.770	288.352	244.520	264.884	259.608	270.065	103.309	193.455	123.673	121.500	137.448	146.376	171.014	131.002	175.359	154.255	159.316	149.289	38.841
39.000	316.905	225.947	294.249	296.087	280.474	271.306	246.526	286.585	242.610	263.738	257.627	267.964	102.760	194.481	124.914	122.575	138.689	148.024	172.757	132.602	176.958	155.950	161.393	151.080	32.975
40.000	316.952	224.777	292.864	294.893	278.874	269.492	244.783	284.914	240.963	261.900	255.478	266.221	102.855	195.436	126.203	123.744	139.907	150.029	174.786	134.368	178.773	157.287	163.136	152.512	39.879
41.000	316.594	223.894	291.981	293.843	277.346	267.510	243.088	283.028	239.077	260.062	253.425	264.884	102.712	196.439	127.851	124.938	141.721	151.557	176.720	135.777	180.181	158.743	165.237	154.589	46.105
42.000	317.024	223.153	290.596	292.888	275.842	265.887	241.345	281.787	237.764	259.226	251.921	263.189	102.903	197.203	129.068	126.490	143.273	153.515	178.415	137.472	182.091	160.223	166.788	155.974	41.187
43.000	316.546	222.628	289.140	291.694	274.672	264.431	239.913	280.330	236.737	257.865	250.107	261.709	102.998	197.848	130.429	127.660	144.729	155.210	180.086	139.047	183.261	161.321	168.555	158.003	34.194
44.000	316.546	222.199	287.851	290.310	272.977	262.378	238.027	278.755	235.162	256.600	248.650	259.919	102.903	198.373	131.790	128.949	146.281	157.024	181.470	140.504	184.526	162.634	170.154	159.077	38.074
45.000	316.690	222.127	285.941	288.519	271.497	260.683	236.928	277.251	233.849	255.478	247.218	258.510	102.664	198.731	133.652	130.238	147.785	158.647	182.974	142.199	185.768	163.971	171.754	160.486	44.571
46.000	316.475	221.315	284.580	287.779	270.184	259.011	235.377	275.603	232.488	254.093	245.666	257.173	103.118	199.161	134.893	131.408	149.289	160.390	184.216	143.583	187.081	165.141	173.186	162.085	42.902
47.000	316.260	221.267	283.004	286.251	268.394	257.579	234.589	274.123	231.509	253.115	244.138	255.741	102.951	199.304	136.493	132.983	150.960	161.942	185.410	145.278	188.131	166.311	174.523	163.183	36.134
48.000	317.143	220.647	281.285	284.795	266.508	255.693	233.085	272.810	230.459	252.136	243.327	255.144	102.903	199.376	137.925	134.177	152.393	163.422	186.627	146.353	189.086	167.170	175.765	164.544	36.404
49.000	316.833	220.838	279.853	283.338	265.362	254.380	232.536	271.593	229.432	251.181	242.109	253.568	102.903	199.256	139.214	135.442	153.873	164.783	187.487	147.833	190.113	168.412	177.054	165.905	42.947
50.000	316.833	221.124	279.495	283.720	265.266	254.499	232.512	271.688	229.814	251.324	242.372	253.735	102.951	199.041	139.596	135.442	154.207	164.831	187.463	147.761	190.089	168.388	176.911	165.762	43.939
51.000	316.475	221.124	279.996	283.935	265.338	254.786	232.798	271.903	229.910	251.157	242.014	254.117	102.879	199.280	139.764	135.251	154.183	164.592	187.343	147.499	189.802	168.054	176.720	165.380	38.344
52.000	317.000	221.124	279.901	283.888	265.409	254.905	232.607	272.333	230.148	251.276	242.372	254.404	102.712	199.280	139.668	135.084	154.040	164.568	187.248	147.140	189.587	167.934	176.457	165.022	35.502
53.000	316.714	220.933	279.996	283.888	264.980	254.762	232.703	272.070	230.125	251.324	242.658	254.452	103.213	199.232	139.573	134.869	154.016	164.449	187.224	147.140	189.778	167.886	176.529	165.046	41.097
54.000	316.857	220.599	278.826	283.315	264.264	253.735	231.485	271.211	229.265	250.847	241.727	253.306	102.879	199.256	140.671	135.801	154.995	165.666	188.012	148.024	190.495	168.722	177.555	166.263	44.390
55.000	316.905	225.111	280.354	283.911	267.057	257.722	237.621	273.264	235.424	255.741	246.693	259.274	103.070	194.983	138.689	134.392	151.796	161.608	181.876	145.899	184.455	163.971	171.897	159.841	39.788
56.000	316.976	239.101	285.392	288.877	274.577	266.746	249.940	279.638	247.695	265.314	258.128	271.044	102.951	181.447	134.416	130.357	144.992	153.157	170.226	139.740	171.969	154.422	161.250	148.716	34.148
57.000	316.594	257.269	291.599	294.296	283.792	278.158	265.481	288.280	263.953	277.394	272.142	285.201	102.831	163.756	127.684	124.652	135.896	142.246	155.257	131.694	156.690	142.628	147.857	135.371	37.848
58.000	316.833	273.646	298.140	300.074	292.196	288.209	279.232	295.848	278.397	288.710	284.914	296.373	102.903	146.353	121.238	118.898	127.087	131.360	140.623	123.315	141.268	130.763	134.273	122.861	48.632
59.000	317.119	286.824	303.846	304.848	299.549	296.875	290.859	302.652	290.071	297.448	294.941	304.610	103.261	133.198	116.153	114.386	120.020	123.100	129.641	117.108	129.617	121.811	123.697	114.434	44.842
60.000	316.761	295.800	307.093	308.024	304.275	302.628	298.235	306.711	297.448	303.440	301.864	309.146	103.142	125.272	112.930	111.426	115.413	117.442	122.455	113.025	122.694	116.296	117.537	110.256	29.817
61.000	316.809	300.814	309.050	310.005	307.188	305.684	302.819	309.528	302.270	306.925	306.138	312.058	102.927	119.662	110.304	109.158	112.381	113.789	117.203	109.898	117.322	112.405	112.930	107.630	31.622
62.000	316.690	304.180	310.483	311.318	309.265	308.000	305.493	311.342	305.230	309.050	308.764	312.942	103.142	116.200	108.919	107.749	110.328	111.497	114.505	108.060	114.195	109.898	109.588	105.720	48.451
63.000	316.499	306.305	311.605	312.154	310.268	309.313	307.021	312.512	307.546	311.056	311.127	313.968	103.213	113.622	108.107	107.152	108.943	109.635	112.094	106.532	111.927	108.418	108.036	105.052	50.436
64.000	316.905	307.928	312.154	312.942	311.294	310.578	308.788	313.395	308.716	311.963	312.034	314.589	103.166	112.357	107.296	106.293	108.155	108.656	110.924	105.863	110.686	107.343	106.508	104.479	33.291
65.000	316.594	308.429	312.583	313.395	311.772	311.485	309.552	314.111	310.029	312.703	313.037	315.042	102.975	111.330	106.842	105.887	107.582	107.964	109.993	105.123	109.635	106.412	105.505	104.049	27.696
66.000	317.072	309.026	312.679	313.252	312.560	312.130	310.554	314.875	310.172	313.013	313.753	315.377	103.357	110.638	106.556	105.625	107.176	107.296	109.325	104.693	109.015	106.078	105.004	103.977	43.578
67.000	316.523	309.647	313.156	313.682	312.392	312.201	310.339	314.589	310.578	313.371	314.111	315.424	103.094	110.328	106.269	105.457	106.842	106.961	109.038	104.359	108.633	105.911	104.502	103.810	53.189
68.000	317.024	309.695	312.894	313.896	312.512	312.560	310.817	315.186	311.390	313.729	314.541	315.305	103.022	110.089	106.197	105.219	106.484	106.532	108.633	103.977	108.060	105.696	104.168	103.715	40.510
69.000	317.287	309.599	312.703	313.634	312.751	313.061	310.960	315.114	311.772	313.944	315.114	315.639	103.189	109.969	106.197	104.980	106.460	106.269	108.465	103.810	107.964	105.505	103.858	103.595	26.704
70.000	316.881	309.862	313.491	314.398	312.918	313.228	311.056	315.305	311.724	313.610	314.851	315.496	103.189	110.089	106.078	104.884	106.102	106.006	108.561	103.882	107.654	105.338	103.786	103.739	36.765
71.000	316.403	309.886	313.443	313.801	312.703	313.252	310.960	315.329	311.700	313.419	314.995	315.878	103.189	110.137	106.150	104.717	106.102	105.720	108.179	103.548	107.606	105.481	103.858	103.715	52.828
72.000	316.475	309.217	313.705	314.422	313.347	313.968	310.960	315.233	311.461	313.467	315.138	315.663	103.094	110.447	105.959	104.526	105.935	105.457	108.418	103.786	107.343	105.362	103.524	103.548	45.609
73.000	316.833	309.193	313.443	314.374	313.061	313.801	311.079	315.496	312.297	313.729	315.019	316.188	103.070	110.638	105.768	104.335	106.030	105.362	107.988	103.619	107.320	105.362	103.500	103.404	28.689
74.000	316.761	308.883	313.658	314.899	313.634	314.135	311.605	315.544	312.321	313.968	315.210	315.663	102.736	110.996	105.720	104.192	105.792	105.123	107.845	103.619	107.200	105.410	103.548	103.500	31.892
75.000	316.021	307.952	313.538	314.947	313.562	314.159	311.772	315.329	311.987	313.419	315.019	315.472	103.237	111.497	105.625	104.168	105.744	104.813	107.391	103.715	107.224	105.553	103.667	103.452	48.993
76.000	316.618	307.952	313.634	314.517	313.013	314.207	312.178	315.472	312.560	313.825	315.520	315.591	103.046	111.784	105.434	104.073	105.887	104.908	107.105	103.571	106.770	105.577	103.428	103.452	50.617
77.000	316.618	307.093	313.801	314.732	313.562	314.875	312.822	315.353	312.464	313.419	315.066	315.615	103.070	112.285	105.338	104.097	105.839	104.502	106.770	103.715	106.961	105.625	103.500	103.619	33.472
78.000	316.594	307.045	314.446	315.162	313.324	314.899	312.989	315.424	312.703	313.777	315.210	315.687	103.118	112.548	105.290	104.168	105.959	104.455	106.293	103.476	106.675	105.672	103.595	103.619	27.877
79.000	316.284	307.164	314.087	314.899	313.061	314.446	313.467	315.711	312.774	313.276	315.377	315.591	103.237	112.763	105.028	104.049	105.983	104.550	105.911	103.643	106.484	105.696	103.500	103.643	43.714
80.000	316.427	306.496	314.613	314.828	313.228	314.899	313.562	315.281	312.583	313.013	315.114	315.854	102.903	113.192	105.028	103.977	105.863	104.335	105.505	103.524	106.532	105.720	103.548	103.667	53.144
81.000	316.785	306.448	314.708	314.923	313.013	315.114	314.255	315.544	312.822	312.870	315.162	315.711	102.903	113.288	105.004	103.953	106.150	104.216	105.410	103.571	106.388	105.815	103.667	103.595	39.924
82.000	316.737	306.018	314.350	315.162	313.037	315.138	314.159	315.639	313.204	313.419	315.066	315.472	103.166	113.479	104.717	103.977	106.197	104.359	105.147	103.476	106.102	105.863	103.762	103.739	26.659
83.000	316.642	305.708	314.517	314.780	313.013	314.995	314.255	315.663	313.061	313.133	314.899	315.520	103.189	113.527	104.932	104.049	106.221	104.216	104.908	103.595	106.174	105.839	103.548	103.691	36.901
84.000	316.690	305.708	314.398	315.019	312.727	314.995	314.446	315.544	313.514	313.324	315.162	315.377	103.118	113.789	104.789	103.786	106.150	104.097	104.908	103.548	106.126	106.054	103.715	103.643	52.557
85.000	316.546	305.421	314.374	314.971	312.870	315.210	314.875	315.568	313.037	313.156	315.066	315.615	103.118	113.837	104.741	103.882	106.317	104.311	104.884	103.595	105.935	105.863	103.548	103.571	45.473
86.000	316.332	305.756	314.971	314.971	312.703	314.660	314.398	315.639	313.228	313.252	315.233	316.093	102.951	113.932	104.717	103.882	106.126	103.953	104.765	103.715	106.078	106.054	103.619	103.571	28.283
87.000	317.024	305.517	314.637	314.971	312.965	315.138	315.090	315.568	313.395	312.918	314.923	315.544	103.333	113.861	104.622	103.929	106.221	104.192	104.646	103.667	105.815	105.815	103.619	103.548	31.892
88.000	316.499	305.278	314.780	315.281	312.894	314.995	314.708	315.400	313.204	313.180	315.042	315.782	102.975	114.076	104.813	103.715	106.006	104.001	104.670	103.667	105.959	105.983	103.595	103.548	49.218
89.000	316.403	305.756	315.066	315.281	313.061	315.329	314.828	315.400	313.276	313.013	315.042	315.472	103.094	114.147	104.741	103.977	106.174	104.049	104.502	103.524	105.839	105.887	103.476	103.595	50.030
90.000	317.167	305.278	314.756	314.995	312.751	315.114	315.114	315.687	313.371	313.061	315.281	315.759	102.831	114.243	104.717	103.834	106.150	103.929	104.383	103.476	105.815	106.006	103.548	103.667	32.299
91.000	316.618	305.517	314.756	314.875	312.798	315.114	314.899	315.639	313.610	313.133	315.353	315.782	103.142	114.076	104.526	103.739	106.174	104.025	104.383	103.619	105.625	105.863	103.619	103.619	28.283
92.000	316.332	305.111	314.684	315.162	312.536	314.899	314.947	315.520	313.371	313.061	315.448	315.806	103.189	114.028	104.622	103.739	106.221	104.049	104.383	103.500	105.672	106.006	103.619	103.548	45.428
93.000	316.642	305.278	314.708	315.305	312.679	315.210	315.066	315.424	313.204	312.846	315.210	315.591	103.189	114.482	104.765	103.953	106.150	104.001	104.288	103.476	105.625	105.839	103.691	103.619	52.828
94.000	316.499	305.398	314.947	314.923	312.870	315.520	315.042	315.448	313.467	312.942	315.019	315.663	103.118	114.171	104.526	103.858	106.317	103.977	104.311	103.428	105.601	106.030	103.643	103.715	37.848
95.000	316.714	305.278	314.732	314.875	312.607	315.377	315.210	315.353	313.729	313.156	315.400	315.639	102.975	114.195	104.646	104.025	106.197	103.953	104.168	103.524	105.768	106.030	103.691	103.691	26.478
96.000	316.594	305.230	314.613	314.828	312.631	315.162	315.257	315.544	313.801	313.204	315.233	315.639	102.879	114.219	104.550	103.929	106.317	104.049	104.240	103.619	105.601	106.078	103.691	103.762	39.427
97.000	316.403	305.254	314.875	315.162	312.774	315.472	315.281	315.353	313.300	312.989	315.329	315.639	102.951	114.386	104.431	103.739	106.269	103.929	104.144	103.643	105.625	105.959	103.500	103.667	53.414
98.000	316.451	305.565	315.019	315.448	312.965	315.042	315.066	315.400	313.514	313.156	315.400	315.663	103.118	114.219	104.455	104.001	106.221	104.001	104.288	103.595	105.505	105.911	103.500	103.548	42.856
99.000	316.761	304.848	314.828	314.875	312.894	315.496	315.138	315.639	313.777	312.989	314.995	315.615	102.879	114.529	104.550	103.953	106.221	104.025	104.168	103.571	105.505	106.078	103.619	103.667	27.200
100.000	316.928	305.350	314.899	315.090	313.037	315.210	314.923	315.329	314.087	313.419	315.377	315.663	103.213	114.482	104.479	103.906	106.197	103.858	104.216	103.500	105.529	106.006	103.643	103.691	34.103
101.000	316.546	305.350	314.923	314.756	312.560	315.281	315.305	315.448	313.514	313.037	314.875	315.353	103.213	114.267	104.455	103.929	106.269	103.906	104.192	103.667	105.410	105.744	103.524	103.762	50.888
102.000	316.212	305.111	314.947	314.875	312.942	315.090	315.019	315.711	313.538	312.965	315.257	315.878	103.070	114.291	104.407	103.858	106.174	103.882	104.216	103.524	105.529	106.030	103.428	103.571	48.496
103.000	316.809	305.350	314.971	315.114	312.774	315.353	315.400	315.520	313.658	312.751	315.042	315.735	102.927	114.505	104.574	103.834	106.245	103.882	104.168	103.548	105.553	106.054	103.548	103.571	30.764
104.000	316.952	305.183	314.851	314.780	312.774	315.615	315.090	315.639	313.944	313.204	315.114	315.568	102.855	114.458	104.479	103.739	106.174	103.929	104.168	103.452	105.577	106.006	103.667	103.595	29.321
105.000	316.690	305.732	315.019	314.899	312.512	314.780	314.995	315.353	313.777	313.109	315.305	315.257	103.166	114.362	104.311	103.691	106.269	104.240	104.335	103.571	105.434	105.815	103.571	103.595	46.917
106.000	316.857	305.421	315.042	314.971	312.607	315.305	315.162	315.663	313.777	312.989	315.114	315.591	102.951	114.386	104.431	103.929	106.365	104.001	104.168	103.500	105.338	105.935	103.667	103.715	51.700
107.000	316.833	305.159	314.947	315.400	312.918	315.305	315.353	315.568	313.825	312.894	315.090	315.711	103.070	114.314	104.383	103.834	106.365	104.144	104.264	103.571	105.338	105.815	103.548	103.715	35.367
108.000	316.260	304.801	314.780	315.162	312.965	315.305	315.400	315.210	313.777	313.395	315.377	315.615	103.070	114.386	104.407	103.858	106.126	103.858	104.025	103.571	105.601	106.126	103.667	103.595	26.749
109.000	316.690	305.398	314.899	315.042	312.918	315.042	315.281	315.759	314.064	313.204	315.042	315.448	103.094	114.434	104.383	104.025	106.436	104.073	104.120	103.500	105.338	105.863	103.619	103.739	41.593
110.000	316.332	305.063	314.995	315.305	312.894	315.377	315.210	315.329	313.538	313.085	315.329	315.544	103.094	114.338	104.383	103.858	106.412	104.168	104.216	103.524	105.362	105.911	103.500	103.691	53.324
111.000	316.666	305.111	314.589	314.660	312.631	315.162	315.591	315.759	313.920	313.180	315.400	315.711	102.927	114.386	104.479	103.929	106.269	103.906	104.097	103.667	105.410	105.911	103.595	103.667	41.954
112.000	316.332	305.135	314.804	315.114	313.037	315.329	315.233	315.687	313.562	313.133	314.851	315.472	103.333	114.601	104.407	103.953	106.293	103.858	104.073	103.500	105.481	106.006	103.715	103.595	27.065
